AF3,AF4,F3,F4,F7,F8,FC5,FC6,O1,O2,P7,P8,T7,T8
-7.827341631129899,-6.558037320988542,3.092483080013756,-5.312821287163688,-3.384673842530285,-3.7644339917863374,1.1702313391191765,3.003154708628508,-6.87276208349636,8.588760510349235,4.340744074627167,-2.5855038236744843,-4.934632976255886,-11.015390759961548
53.151390209894785,39.456821504315315,41.20278888916856,37.57207958784241,47.5596236887927,46.58685578153914,34.37926012624412,47.30835074566656,43.36484276291827,42.92110306972322,34.699487182482244,41.12244637268886,44.326487606843,51.354647170309306
52.28431810339409,50.569390120498625,59.443423628323885,54.73922754832927,53.581923221738236,50.82599283132698,46.21757541467187,46.80495991503237,49.06065561976234,55.00028681004005,50.92617824230569,57.68508483039795,57.65261897407532,62.46823397587935
21.98985742540593,31.901633542492085,30.119702431952703,34.07586582013004,32.158829321343696,27.324983428554113,39.67549018455886,32.92321360276448,40.51742093922343,36.47103239452123,43.119767516147434,43.45357447412969,32.657684357254766,32.610575595168825
-2.6825429087938293,0.49367347555321484,-15.765197923271035,1.4839490221869562,-3.3107469312209314,-7.420484474964656,-3.1241750974500393,3.23687646414459,-3.4158089097414015,-5.950017036904792,-2.9137669132948405,-2.7353899126488557,-1.5074560409158346,5.105188612186975
-23.035629650427907,-26.234670210844875,-37.54386262797871,-27.49753132881315,-38.046776529908925,-25.723211570397137,-26.409020638085824,-27.700702044150876,-22.920561488857526,-17.24048048854619,-27.753700118412823,-24.110100707083447,-25.49182767862414,-21.489375374488244
-26.193559662850255,-25.36656447942976,-31.611585707025498,-24.006749783989093,-24.842588339978807,-33.086519458356165,-29.386641845583977,-26.343767884733744,-25.202096890264976,-28.211762166605226,-24.80285857613844,-29.673928979195445,-32.0099839590716,-19.643769239896116
-4.683368386370372,-18.068765169703113,-13.453348751957414,-14.76760023209197,-9.636998063973307,-9.261254060147929,-10.43469345265208,-11.269055916114763,-10.536114695717337,-11.317596659262831,-12.660105725152883,-4.271939061735717,-11.439581144011134,-10.097988243921055
-7.149267653503134,-1.8287218287439697,3.4106047222518017,3.5768672440604545,2.017012027151517,10.144313353872322,0.32249933906507733,-0.22909840609710974,0.1963875978276297,7.074225723022468,5.32213704956483,-0.73420344828967,7.092277262059584,4.255476699139229
-7.410919202294465,-9.201382065514288,-5.027412303716278,-17.06713089152357,4.475500023042386,-2.733990505236726,-3.5255701513429294,-4.93075559643956,-10.317942615813372,0.20419331775139238,-3.8959175712722756,-6.327152044598311,-4.559473305367136,-2.8647758080861228
-9.773157541421195,-15.69495116672123,-17.93484599416215,-13.382188744875068,-17.32843380783105,-13.623402548989642,-21.322941594223707,-16.98266268860774,-15.759288260811886,-19.623555014110696,-17.572691033262156,-13.904402673016872,-8.061539597391086,-18.223609825964104
-18.552814856104145,-14.874274249898134,-26.72789818660438,-13.477505722582716,-20.377660017195634,-15.029629224065273,-15.3861888743627,-23.282843099745097,-19.82931144941006,-13.712447884373422,-17.818015380592964,-16.872814358032162,-18.171907425545257,-15.225079457330464
0.6085118879993763,7.234769542799716,-1.64822035867323,-1.3829202802643836,-0.4001818569112565,-3.6107409582172814,4.368538783451918,9.003692255420063,8.843368920417326,8.907703304783393,7.254580314385754,11.190942945090903,-2.2280721588911314,13.927227469443336
31.823340233800142,32.485054650103066,30.14809031396977,39.94148301573862,38.24010294717578,36.75253293164701,42.80745095535876,39.01572660773689,34.355384153548485,45.01093013135227,36.566346882960005,34.75932925988099,39.501370589256666,37.48187068877305
51.59807376171894,59.99329359859154,49.26119053898929,54.92770742128738,50.914724357437436,52.469593110436904,46.86404174211923,54.82053155677203,41.49933761658669,44.67197649250735,52.453370320431404,50.58495788930016,57.807216597107335,55.225930351781194
34.04175563552747,25.76125522140398,31.66080523639443,25.098198125496857,31.503495718927436,35.51511531332648,26.542913620024223,28.64163686314211,34.00482821143276,31.334814886543228,28.159884970360586,32.722098533304376,32.789771945753195,37.25642082339834
-15.588547638258202,-9.676036595059273,-12.446791549551408,-25.538663145825474,-2.999055427145837,-14.730023132185435,-6.982128295626366,-8.752360525110003,-11.165641923433107,-14.378811899385298,0.5718302785491591,-9.341897542255438,-7.708139513715649,-8.840741745051009
-58.852522543966344,-50.56283174129745,-45.684090810590924,-60.907736023391344,-51.6084357897247,-47.79980639464349,-50.35377345560021,-38.220088287543774,-47.971903232446095,-56.32378479860297,-55.66028862460976,-56.44403492644586,-46.06433472164443,-51.84625880837035
-54.06540065733269,-62.338070629677034,-55.358918962819374,-48.84912055706641,-67.55885372304536,-55.207658854319185,-54.43039281825046,-60.64350987381557,-62.635777394960044,-54.20801577837206,-59.57373159408655,-65.4794502481553,-54.835308565630235,-50.92795636438238
-22.73507323829466,-25.897093375233933,-26.158775949761072,-32.072977945902025,-28.67749480710703,-28.716668520358223,-26.580012965358428,-27.801052830316557,-26.67294310282478,-32.32405231398188,-28.634830591799478,-27.509905911521336,-33.772912847181516,-28.06008962364097
13.143934087553587,5.856456239415469,7.499954278113724,16.241463679164973,19.2470293653249,5.680614645940196,12.193230160012382,13.047870864001595,10.226409990944886,3.5740698711156504,7.393040840998411,10.948182438369638,12.881552710375464,9.630737850579827
35.533343611980655,40.42358756131262,32.91370389297878,30.66618401720195,36.30209836237829,52.040350355888215,38.4407483040819,30.999266414254635,40.882588277070866,42.10033867878033,40.82591454918987,40.16817573614775,29.93433031025537,44.03597777179277
37.17875041455957,32.21442013091426,37.07770390416764,31.502723632138718,36.413015545931366,30.284414821164184,39.71541618855554,24.85092932719722,40.207543676652016,27.191094343994536,31.69087287906354,35.31687987827305,33.29690340524678,29.450328116523647
11.329786817553202,10.40522181959032,14.484547774856734,15.547365421918862,10.287103715003724,1.204285992262431,16.823118913113053,15.50183139103021,7.651657840047337,13.584451467636624,10.721970887616788,14.351482789062244,21.07437120280431,16.40489120201446
-9.855720811601529,-15.642916615128858,-9.925299728332192,-12.476881367421248,-8.685822336486673,-12.12145608094454,-3.1340420381093104,3.5456059349827864,0.6756435174631434,-7.2006024417760495,-11.319908301500345,-0.41061794378958894,-0.1395524954730778,-6.147675886215333
-5.7826275974322305,-3.560555927977627,-7.641905806720779,-1.2207868981979955,-4.289871527868394,-7.41768874837784,-3.088253278645695,-12.89260506520684,6.3579893225784065,-1.129460221675874,-11.372951747833081,-2.6139828580168922,-0.714350143028752,-9.874578838761137
8.188105905015124,1.6891854197215581,8.371895153858453,11.789352102361004,3.935523227186633,-8.995208126555394,2.76976787220571,6.987484368388969,7.97051573755128,-4.581728233569726,4.153432925835929,8.820021713852084,2.050671533400448,5.71502420358464
14.3954354376726,0.7758726290860203,12.598837956311446,6.1209165232152944,4.642418028485369,3.1831252880521212,13.862673789881283,5.614465044811447,2.392393465810044,2.6706341099048165,5.423281566134234,1.7007996246936017,5.823938971434876,6.7523291202286
-10.843862835522549,-0.46901911166394683,-2.47462310138911,-6.076749889458156,-8.770852889056286,-3.273336538885699,-11.361706367767564,-15.23070444718513,-17.076648648074546,-4.880993811405056,-0.7832891922622824,-3.3337026869780395,-2.240200209583427,3.012266459204282
-30.413469841882613,-36.206057723768005,-32.06941855360229,-31.939602854690726,-33.998694951520505,-34.125303452889284,-27.973428206003664,-30.992803516583677,-37.07145134841961,-33.25094093440637,-37.69183544492522,-33.84870649514345,-25.4389369530846,-32.12994019025022
-40.19815047031222,-38.94072706844657,-43.12048885020572,-35.40221354257033,-38.61286890678842,-39.43840089041418,-34.61898061981187,-39.85128757075035,-39.67517544498001,-46.20028901375766,-47.5710383605233,-41.61621843235646,-52.43485530988163,-42.17930434828135
-10.871045626811375,-20.48828569101595,-12.304973636546858,-21.61065263361206,-8.983879827680886,-15.338778692914115,-17.185231577852086,-16.934759330372255,-20.602905385480426,-13.255869893963514,-15.605510423796904,-8.520272431761438,-13.345318997101133,-20.510648672274858
25.121963878555942,15.534195075844453,17.532618352004352,21.898703021589526,21.992949971312296,26.816324339638893,30.040333652714608,12.265908823959364,28.369415915881838,28.91183589030949,20.388960607859815,24.20894483750213,27.872164396386378,11.974831638915406
48.88791232122369,52.12310800623931,55.74784554813561,54.93391650622828,55.379869498953994,60.72698871159925,44.57656571068051,50.58910131058826,51.94660165313437,50.20837102971248,51.91662623318419,53.75967153437316,45.997009947254675,59.68261302791645
60.60113006669755,60.26918331605265,54.724904221871384,50.92378800648721,64.44245483579682,50.08682526840149,60.83255616994427,46.93397355744868,57.10581754404765,51.72471966725275,58.65722854536993,50.319589765378375,54.45467707491321,55.514837660197735
31.30421915429786,16.374710613380362,7.586018277145653,11.44347660603572,16.852792913434065,17.375019237042146,14.605452609300585,23.051770211884385,15.268427531080139,12.276490106166781,22.749188257270127,19.644612183656893,21.69106709045907,23.78199191942444
-23.022969056038992,-25.423907262543832,-28.69097936403971,-26.348445772125274,-31.78611180631811,-34.343469567824684,-21.93014012311604,-21.100101304029828,-30.018153282769568,-26.95512747122516,-15.814241600157235,-23.93744410684064,-32.833319458037124,-29.353556928497145
-53.47664133968841,-47.3352902988679,-46.63504468675379,-53.71766866625562,-42.329906575516596,-38.47880927933163,-39.418412224595365,-45.953430148432886,-43.65987437538218,-49.530427407671176,-45.44876276685964,-48.020071626994024,-52.17541480651872,-57.487510339884366
-47.260485719649935,-39.80187266026945,-42.42422831064587,-33.56476747394318,-32.91347199717724,-46.968690574776836,-32.892442270031886,-32.95598429285841,-42.72446738283235,-47.376761787105,-39.20456434373671,-42.134318928071934,-49.31784399964513,-35.8514243053675
-12.139388429779215,-6.196897386211581,-6.55002799076424,-10.539509942524381,-9.655107626400252,-6.347537997996687,-8.259676271460197,-10.221505162431475,-7.183786352370164,-10.92793721582983,-17.30948185879274,-7.987518025811065,-12.84625203799138,-18.475061877084457
19.814838785354787,14.31029284258062,10.88909129565656,1.0065055857604275,9.51790018861161,6.3732298282092685,17.623244997966818,13.989889156473195,6.404327260096574,19.744927590007855,12.617698898240102,12.541498828177028,4.44716355462552,5.811157249324492
24.48772175826907,11.643377738148088,9.934513132848409,30.39312131046794,14.600822475062404,17.36350527397705,19.274482209902846,19.949848694927443,19.341944524229795,14.115990401334107,21.927855048658422,19.76602148982439,18.10083938330577,14.168485185811388
8.548784307840702,11.612609856999518,6.917018745732804,3.1586921858997408,6.043188721520394,10.164558687817998,4.284024568114941,9.764097292115165,3.202179226412651,5.54497623664267,1.8306921312142306,7.8519436543699,15.964062059600503,3.3732108986794644
-0.7315118050045372,10.730262107416749,3.2486636508418565,-2.9291608888359644,-1.9214662585397662,-10.9165614001837,3.5334246158006604,4.023338268957014,-0.6716583312296911,-3.2789463962269383,-3.7653529057602473,-6.000783519309121,7.667892211224549,7.619650052943072
5.895729219209208,11.280981185751465,6.556482897318352,16.273712232529178,3.78018810871284,10.414920765730297,6.514911375076037,6.0343425996949165,0.5969928530808009,18.650924267958196,14.324886075857732,11.136835875535635,4.45167037192425,5.022287647167754
25.888515762633162,28.16510083261863,25.57742323604239,23.191334711567695,25.055999060770706,19.881946941261095,25.334538801506046,20.14030356565864,26.379912512915922,30.729367137567067,21.250503210509127,30.11347607921058,11.649390524074798,28.646359290498143
35.367843892981966,31.668200512661258,36.34224771738518,22.600957176583933,29.21559450450282,31.45573887806747,27.238904029155627,18.457347572630347,28.254337442128968,31.2009461302341,23.87230256567397,24.671727598421924,24.17632875738568,32.75917022461101
11.33293298206055,-6.429532753480707,-2.7085793820078656,2.0408181763937483,13.079211446882733,17.02871717688688,7.31821588993274,11.767872410022491,14.721298161399655,3.8687776796898303,9.75539918779439,17.69357047509879,10.959068289858273,9.518283185967222
-21.210334682167243,-31.675718129897103,-27.894742076588198,-24.96250576337106,-20.019465379212814,-27.93564615066868,-34.325818312376754,-22.1618170853485,-30.527875372922743,-28.00566804187202,-29.474362246294888,-25.062982417542997,-32.56099101517978,-17.6702808602071
-57.312351169324586,-56.114132806098596,-59.68800113617723,-56.54212841318768,-44.326056404921715,-48.423222063524356,-65.96270514114453,-60.05054205489337,-52.60560265262519,-65.52055453350145,-50.178346482965026,-51.63443792919022,-46.93685836177704,-51.8918285517222
-49.540071384961934,-38.89055670590619,-43.11432392220794,-48.5007613744195,-54.112513157098405,-42.63277850032104,-48.00294294929693,-46.730934525575584,-48.07476175744227,-49.174906118425966,-57.03133891973519,-42.078615275759034,-47.935976575672505,-36.7941717053094
0.7583329619858858,-5.054050858851484,-6.450960790914207,-9.668601132854139,-16.469916765715546,-7.91766897209028,-2.580139204656663,-13.997176512913473,-6.1216561189420755,-2.756803138654644,-10.0454829002547,-6.069202220399559,-11.91127489682131,-12.515775762917183
28.366019345525725,36.51208028485693,34.1423024907852,31.892696900925554,31.594705825349042,46.784522720191454,39.917315525993764,34.57714061950241,41.98829400778091,41.80291512102544,36.00062456340897,33.577012757989806,38.83618753845974,29.99061329927115
60.11348294616134,56.107886260540724,53.61241061996262,40.2526546425085,58.67980225381775,56.43445289135485,63.81577063982836,54.34885583356935,55.03765403855753,49.672743455346506,55.19983252058998,54.241239833166475,53.199471683589366,63.5431661674736
45.82468139755976,35.86187887309399,39.885546395222384,44.5218506095261,38.071191142028226,33.489436114527116,43.601081127564804,35.32791861339694,42.99756065588748,35.77818330025697,32.414850316731794,44.35528952994521,48.71385223472724,37.17598292714333
-2.801929956296247,9.242869132463717,3.871495092513258,2.570659763630166,1.715449916015518,2.072573003292809,5.759921604025188,-1.9202668157744363,3.4530324436216184,3.541673170927316,-1.7278581296571982,9.417078331763953,2.448283189151067,3.447077654347832
-19.224515306629186,-23.888540682052483,-22.686688113658622,-22.695457817955187,-27.12562216736928,-28.069783808697146,-33.102106362000605,-20.160333269051762,-20.855969298019325,-29.46696813698135,-19.924950078552232,-18.935707303635503,-28.680762348037682,-28.279059373820814
-26.313158490873338,-24.278337587597967,-29.26285266037792,-27.90361968525872,-24.99137964830989,-26.930545879156103,-34.70008912488662,-24.90622587296669,-29.531365853697366,-19.404609630422307,-31.222327946996188,-15.746349631184898,-40.54910501677321,-28.27436522966413
-5.043043534763029,-14.722933116131063,-13.568081504053017,-14.772568067342213,-15.21887348250345,-17.045903565013347,-27.94555950549615,-11.07384853226944,0.06471535116277316,-14.784566404177584,-25.503121185547847,-11.266701308610987,-12.645184371230707,-10.91698420477845
-1.8597885377256538,-1.6023337970087175,3.375521040751131,5.305790737583629,-5.218917410028922,-10.938465234576135,-6.32284122179752,2.9229966897951454,-7.541700688830656,-1.3664134563691497,4.655951514394507,10.392620244281227,-3.1634965710481913,-2.9814697801321395
-5.584709338038585,-4.840685566642211,-2.803841531772761,3.053604822878352,-0.47321291144275346,-1.8418427719818449,1.0266654608009267,-3.207044215915349,6.016353094828835,-6.894185074546154,-6.385952518575736,-6.3873442150909225,-3.3750567031064715,-3.217209973405572
-13.042884729307723,-17.124145412776027,-9.790254463290928,-18.303481058299326,-17.36261005926244,-17.03952789499079,-14.065253082755913,-13.861206320187723,-17.454180817712412,-16.13077042530022,-15.70250771638017,-13.8306797690629,-12.883358423685802,-11.391074963799724
-15.660478743301306,-14.902046111120766,-18.01893224253898,-12.737811753510588,-15.84587151792032,-24.554467592039025,-9.109727124418875,-12.542405037674515,-13.903593194676846,-28.919376210975628,-23.553469057997958,-19.657804531105324,-12.399732382366913,-17.77744130222586
-0.1637532337795552,5.7226879350521305,-4.597719608829458,3.9234556495081696,5.368422437065338,10.078734942832915,3.4362995248109955,-13.071238472287092,-3.536427162175082,2.6051846147538544,-5.839931183775963,1.2227313599056324,-0.916467321396774,-0.4627436221045913
34.18168553092937,36.48286490262544,39.11296437178457,39.12706466097463,36.16597844119372,37.00000225174881,24.393590922988242,28.712881130007013,30.10983456494661,34.656224790015365,23.30997546330198,30.002492274811296,36.35535165013118,29.473927951335327
43.96192167116346,47.16083905378907,54.857864478201456,51.094808853849486,53.9045219193478,48.261075960845154,46.93864727583252,46.439622158738956,50.20437839631122,45.54801819259973,52.079442609647884,45.38943727466922,34.29183846333863,51.53831702646166
33.92457973538622,37.8794525699881,37.74357732469099,36.47370407975613,27.481554803694017,43.3285417261295,51.423815323008434,32.2827314784709,40.2557824090003,33.60524011962135,36.342181780472444,40.22123507494819,35.50636519676689,38.594905303480715
-2.548663046197233,-8.432216761056813,-8.768287460039872,-3.6708750915074435,-7.943407938016664,-3.011990085081052,-3.171769612124214,1.2547013201834352,-7.769271158435874,2.891396720368051,-3.7195367469232945,4.578366828129464,-1.615691562127222,1.0880751064818641
-44.25083049083722,-36.19054329330848,-51.863987496963134,-38.75657475804647,-38.9240757972572,-44.07902176988014,-46.274751223374246,-43.787564659587275,-40.84894053795644,-33.86867922472079,-39.55035032742256,-45.66154778668043,-53.279854809742126,-48.09202659971865
-55.05080448713128,-58.38764918435107,-56.101747673802365,-53.996424423748785,-66.20913821022776,-65.94208353820447,-61.8993201766799,-62.64312743447555,-71.58900385156491,-50.61726809535681,-56.104226770352874,-51.422853613961244,-58.8478941565524,-57.665639718055345
-41.08563172545149,-35.11635751017382,-32.05445704425888,-38.96698375470734,-27.45828808883146,-27.366367464411923,-39.15993401398253,-34.56937650063773,-29.004337754482794,-30.893714269026244,-37.156115831479354,-38.03605069168948,-30.885389813531404,-31.993474705793126
13.357840752217724,6.742640889657685,1.884342010595219,4.813963586854871,1.198108317871566,5.151733768996799,4.250876484377734,5.136545631261944,5.988021273007328,-0.010921015972980896,18.02890877442318,10.861929117063921,4.693618634017463,9.991282454674076
35.007288876681955,33.215794307823494,23.42394143633382,38.76706276922944,40.29489808428643,43.39677391202701,37.19960180416283,38.1323807263493,31.372572047974828,24.101458484518048,39.793718537938965,45.54239794734335,35.45337296919563,30.15817473331999
42.27010522007821,42.7026742660712,42.10370444525417,28.60271399790819,37.41139085477431,39.86521280454688,43.83152949975277,44.27676352854544,34.58109603013064,40.69906314805506,38.341383454600546,45.1469971674688,34.13408591872596,38.6875798488184
12.174789978041971,13.648358389112351,20.97729036406815,17.67356115280623,23.196907706760825,24.958837355221906,15.636376740138509,7.1548661073160496,19.688425570616708,20.736650238990315,18.205026105116318,21.269547681541884,14.098630542113206,21.879254342686917
-0.11983209418954432,0.24061321684957493,-6.893915644016272,2.1638539703614263,-7.017921581689687,-7.067068643226804,0.0648819467688333,-3.761734965523374,-8.459207531804358,-2.7718818711294193,-2.6333161791020556,-4.681990592750711,-2.8049582866644682,0.4772480023435337
-3.5281735854394776,-11.79390196322925,-11.03904922351147,-9.40977592465176,-7.39433178845133,-4.778367868318133,-9.222682221715147,-4.81456988367435,-11.371176270420996,-22.415486404141642,-9.967909959723972,-15.567936548654046,-10.97556057238629,-5.947976944774076
-4.243243732937398,7.720282474406393,4.65679932161255,3.3321547716635194,0.43190092555526327,11.357548125775796,0.6735422782712503,2.675377860745231,2.9274661938046767,-4.777765499498779,-5.516032952787088,5.698150626824194,-3.2972323002296546,3.5681465587092616
14.752431296919891,3.9290199115497044,6.945705492211038,4.42361716258214,8.03065073090561,7.5045431045420905,12.947694931310906,4.979916389623052,4.692395750403376,7.866863000591814,12.249981429557762,0.4742654241025068,-0.68533464436217,4.29460178033837
-7.149757324717479,-0.07007828226494084,-3.1252674917908,-13.74986068394071,-7.06311482032487,-3.0117862732052036,-1.0905318789528282,-2.280515640457424,-1.7150247006937884,-11.241914024231258,-5.134910760770465,-4.644519433907572,-3.2170141054254797,-8.751224545907114
-37.5807838591092,-22.425723629824496,-34.375641993016075,-32.91289450146315,-36.77312977122115,-23.612645343082292,-36.049757879638705,-31.58718791455029,-27.164596002611052,-22.389005553863967,-35.34317186248013,-28.62389127822097,-26.539938963850922,-30.185266653923552
-40.780630370542376,-45.95091340797633,-42.20622447845122,-40.02298604640404,-42.368162284163404,-45.089434273727534,-45.39818271823132,-40.44456896103211,-40.878017085465174,-54.455557237125326,-39.056765186707366,-42.568477010266704,-45.18434186037213,-45.29258162582168
-25.03645722396548,-24.129162025070183,-28.933369596055776,-23.44627772294372,-20.835975804963912,-13.661030691422862,-29.823980734236557,-23.227127190317255,-26.149798769704844,-25.098968702103715,-20.78342345576444,-29.30057278599191,-31.30707974989337,-23.595993684088963
10.443323727540518,12.094814101223845,6.749009119143194,12.973895863580257,15.267078603087121,14.73423491875636,15.149095791370252,16.915856069706642,9.35675681808585,13.445332209834902,18.321486435501235,20.48695315519946,16.238768399776234,12.787949503818924
57.002202007914235,55.168465321543145,49.88368292671052,50.963571607869255,52.7557402832075,47.22566158611311,43.407598658402065,53.536988382878775,53.10350774196515,46.91418160702702,36.19512557773277,47.20717983494003,50.98950334727496,43.905070840021985
58.24673079442617,56.241621682091065,64.36612799074123,66.64302437780717,62.17502307117064,56.77534339234284,60.867180373352376,63.64643512017475,53.57895698191634,54.958385935845556,65.1654701087344,63.283164895461184,61.09446259729589,49.24450651578384
31.49130340615423,22.03137854625852,19.43783028984133,32.410360899094236,30.760476908919976,29.71032616770336,33.45923896462655,29.901149893634845,22.931192879904877,26.141527725867242,31.918618889894432,29.158123187077006,25.715277734755528,31.220852123140915
-9.345005019572373,-17.774879504639777,-19.93673705458037,-19.680210471739706,-12.405763424041748,-19.18668771569162,-20.446835083032326,-17.037742412091035,-18.913876457830508,-37.417006491278116,-12.100279140226789,-18.117114683377263,-18.411108570863203,-12.637541785427832
-50.96103036955329,-47.545068793523086,-53.5927856719314,-48.474183411493144,-59.94916805922692,-48.63399489531943,-51.04667926768545,-48.83569668875129,-47.329473893039015,-40.65820601569228,-39.95853275180952,-40.75949837202808,-55.12440032124079,-53.21295985830136
-41.520156935106115,-36.09496313572009,-38.15138584260607,-43.66471345965464,-39.643755426325484,-51.892001918040485,-35.09771911691868,-47.91769601809141,-38.855243706803655,-43.90574796982259,-40.83330869024613,-47.45458543889544,-48.80780784721551,-46.370792211972656
-13.048385219483608,-13.285428366541888,-5.746952750825621,-11.531315158279398,-14.490790232494225,-24.367980820589196,-2.8210420099192994,-18.090411711973566,-20.596552865175546,-34.965058841525554,-21.332919025995505,-12.600598851782497,-18.168578417979976,-13.45345431005525
5.3146388035252725,13.167415740549863,3.8961357749494336,20.914627555305962,10.002148014046407,9.246179131158243,17.09789526556804,11.010305493980843,2.4299674367163355,12.660077961778088,7.568292890247168,24.59270638523955,8.535880948687089,8.204606156623072
13.075419811500794,10.645114278289936,16.78058638565071,7.513920306573796,27.45452398976661,22.321685962624915,23.942508905021366,12.691257601826702,26.563397307922934,11.001826209875231,16.65908662821978,18.966484703560273,21.159863500800274,26.895389966623227
13.69079914677032,9.808470324778487,15.014730779621663,6.744291483697502,5.549827375069625,10.575429653065909,3.5750559403844466,10.312926154617095,8.063016831289772,5.502589671857109,10.827214989413882,13.41235493335436,7.7592214090447325,3.4044792750449417
-9.939232250490205,-5.600269136326593,-4.782858135681408,4.961401427679338,0.7190036164671849,-4.308080808969175,-4.240690727483691,0.14501023322830398,-2.7009455691485345,4.4482403631766525,0.15122377676242027,-1.6299888605565178,7.803595161974904,-0.49285684062450696
-4.521994939994887,2.309873202607868,5.869743103845824,1.0646643134025968,-3.572182958854061,-0.025280700068242012,8.931556014636502,7.715723084284541,1.226072365559519,4.067477873058133,-6.694738051403725,12.908872686801558,9.195882610203391,5.5164297338120605
19.89119155671715,23.51203614388416,26.79765437520315,19.582040762097574,19.80004042617178,16.926488365021413,26.777167325636164,23.16892926369328,31.205797400270306,14.13570097460768,22.903462063080752,9.812529395288486,13.642806276956517,14.623360208354262
36.19593282366782,23.331665324455148,28.92789478512138,26.019448208285773,19.514233241260403,30.244917461466823,19.93249232924868,31.037547753714883,30.413001571121644,26.747094555022393,25.992062551945928,32.76465394110031,25.36039643228338,32.93592075290352
22.488794008106268,16.227887574793353,21.14844283275326,16.69070294853725,21.629213236640844,16.90474317978589,10.003620125220992,14.286313324320398,10.825159250633622,17.932611852859623,11.490171268994079,8.696358501260503,6.937096093872041,12.160028757139486
-32.336784633814325,-15.896873483188028,-21.882998614243768,-17.406149408236846,-22.030549459061476,-27.33915814581523,-31.35502566317775,-12.50160235656226,-27.027164898486127,-18.393069017710374,-29.00050317739847,-20.7602667461493,-27.246566547205106,-26.85322509389153
-47.86320925638794,-51.701760577001956,-46.67141184864088,-57.714888494943025,-54.28576411434352,-49.11782162833295,-57.98375696657275,-49.74536475008797,-55.2208178859955,-61.30230379185952,-53.91500638413494,-62.28566973816214,-53.83166772751976,-41.41908695639487
-60.14846069455177,-53.90933780591575,-55.86875319717818,-47.9670765390986,-46.880405504431096,-48.91492426486684,-55.0796447767579,-53.055302162848115,-45.890012948058654,-49.81418461291441,-53.35461268522258,-55.11195478200798,-41.847730154231165,-52.281861947014264
-16.945187398507457,-22.325666295939826,-13.74678364561693,-14.028357887968983,-13.423521297262521,-16.332843138367682,-13.141123930064527,-19.249343858068844,-23.440310640279897,-20.981709340549468,-22.385503251053386,-15.885399663348597,-14.367594706593275,-17.93827683631272
27.48869199909605,26.382283878377926,31.902495569183518,23.830880934288672,41.523132196417635,26.6620065393112,36.702441803836905,30.517721220600592,34.46572587460825,25.582071929426238,32.251981710107756,25.62966947018478,19.92415439144291,28.134165802330397
55.73146543713013,52.85990905691831,51.7435457766682,57.962514039461844,52.021489851287555,64.5578258012002,59.64797373625024,56.70728935293577,64.91641153088787,59.64652039597104,53.25952120140422,48.677923693386646,60.39897031103659,60.53692241975065
44.287937178818865,37.62822093889705,39.749226420307394,39.844710357743864,47.50426504116382,52.28047360513023,42.908043649525546,40.05590168194393,49.74882825371651,30.94123116224241,43.25871539251954,48.65964230292006,42.39812385214491,47.38590778890512
15.936811566673153,17.728878847363667,2.525001893321283,8.94064519337527,15.482040772147224,15.184374664378556,6.835118439225288,9.358016347516076,14.401608043437022,19.975300819809163,13.316009059742965,10.162221068129528,13.270581484616756,20.109457859260235
-22.548627133100204,-23.642080881455705,-19.71537018929176,-22.051218668938443,-17.980032370216634,-28.30098321811046,-18.746421232262286,-16.148703740679853,-20.228095187913247,-17.843632207116997,-19.554570642365192,-23.15500029072143,-17.207615873414458,-31.285985799705905
-28.694544234935034,-29.25448911442376,-26.45833842064502,-32.85819581437747,-35.43355435810036,-32.89387296526846,-20.625791374841324,-25.818912172375516,-39.666900221299,-32.76010495218797,-24.316318068471404,-26.597205855572497,-30.25462474846865,-31.327225410628742
-18.20858574225686,-21.194830081731638,-10.351896215229209,-27.152806044757547,-18.555925033205952,-25.01338683484704,-15.977715123332146,-10.145613561891786,-13.328015039245676,-13.980576990181062,-19.12342877545825,-11.519163576694275,-19.757329612243907,-20.439918519884465
-4.499915322122119,-4.425086684036038,10.345762976311924,-4.38186541981868,-1.841036874197639,0.9420456521254184,-5.5843177239737924,1.0415444428210656,-5.192578944261923,-5.785018009808531,0.49794044224314726,-8.100007083909855,-0.1426320922548605,-13.105897972102131
1.8856814871957606,4.608133217491432,0.40144419721572655,0.42307544076598447,-0.6483853947133896,5.153445511362997,1.7163683164959842,-3.5323130502889106,6.015279458191065,-5.689045900848222,4.6695177042553695,0.8473238503084288,-2.5599665475236,-0.27784004861013306
-14.668798187647909,-14.546913542731765,-15.42906496605253,-8.251136121031628,-4.58334084780993,-4.9002856487767765,-13.301330389634558,-7.177831620278571,-7.737294154630602,-5.168925725247567,-6.319144366424599,-11.631156816032837,-13.104938759581938,-13.302949236590512
-21.165487530162537,-12.457464029153194,-25.159532278966836,-17.634339701410504,-16.270142202707817,-10.818313819356572,-20.459710454861114,-22.415121248306882,-11.109402960212446,-20.184644634411626,-17.17424721614661,-25.455986791490677,-25.254408885484203,-22.702610113046127
-7.700856807802138,0.6945488061224756,-8.292671373652649,-1.4499454162866767,-7.6305822402984145,-3.597863103396482,-6.306335397273048,-3.956914994920002,-9.544859965165816,-5.675794967117518,-7.532690884056198,-3.339054976150962,-6.5851651635341515,3.534114208391058
26.437427621879518,26.452595621180613,17.344902867658156,26.75141217427908,28.63712041291319,19.014713678761783,27.817097024719214,28.58967163382311,31.41885749769486,22.706893019513956,25.291704780780385,13.203708827430397,30.10453580063305,25.530098661604356
37.06571611550901,43.852095975070895,51.046936950981866,48.11209007662518,55.427762920491034,39.17093653549097,53.19480517964551,49.3043522607806,41.75174469523819,43.23615166187537,43.638714534302814,43.06417391682564,49.59048389155881,43.65526384450643
38.41734050029242,53.73806603628446,43.600133778957144,44.16945090879061,45.96573226743178,43.42765259579731,49.60785780636061,49.325339759743635,28.11572450219959,41.30737632581007,33.97411709317743,43.409246743709794,40.05698153908333,30.645071609320294
5.60091660862582,8.910197264807632,5.955770566962022,8.362070519368388,10.023270325062988,5.378945184224742,3.39043473926366,3.859380552976682,4.373528134084978,1.1496142310023005,7.493199974875569,1.8560654611846132,2.5291173241638134,0.9161313123335502
-40.30709353684244,-36.2161788133321,-33.255492249358895,-37.27971773137892,-36.17338712878401,-28.998487715644213,-39.66650747163631,-36.10940843804669,-33.62863808084127,-37.28608200157887,-37.95991455822011,-43.267146023645374,-30.153850478930963,-39.47293216329899
-63.88838433447028,-57.96974734586512,-70.92795520570456,-58.775221130265955,-55.359097038110185,-53.123574786392,-60.61704981729498,-60.50943608599721,-54.74398773226483,-62.954775763387644,-65.36602811213676,-62.345521331754895,-62.01095907764433,-60.891329069860056
-38.0951694778527,-40.96196533610578,-50.050568912860264,-38.41931876047347,-38.257599782975554,-43.48112248204925,-42.59482945684968,-46.19999918240783,-46.35407316552785,-46.222850790122685,-34.69751501261844,-54.267779510942916,-39.737780712857074,-43.14271491123442
-4.357691157846692,-7.814341424723416,3.974858207154332,-8.844250931163083,5.106073680824684,-12.796975259757739,-4.9851585041163675,-7.255794163938456,-4.9393653852496175,-6.4419898560183535,-7.068112933863623,2.5898596932178704,-1.227144029961969,-3.5802614579361696
30.883679518550444,32.939446694021626,30.364057369873578,30.084742503942316,32.00187904833345,37.702011183485844,32.29332722648343,36.33861242629416,36.720862522189805,33.330719181438106,39.83298711684871,34.82273418429496,32.049391532959405,22.84291953405492
39.05319721565899,35.19492265513321,40.69860926095239,51.20834313320873,37.03295140917636,38.601191210840966,38.74693082395249,42.84072884587775,41.58230692513671,35.3164885705181,45.15485647055493,45.66445010574412,41.46164884369095,41.33644501721219
21.229399455618204,27.414944900629486,17.00879565022484,21.848860319054467,17.46729563872847,17.79805625774091,26.110595215066002,21.75245818192834,27.796759969163695,30.182442644247928,28.51074547912563,19.252917134635947,25.43747125093969,19.443095820270617
-3.26851836565761,-6.488972706075341,0.386341676518264,-7.451008548801623,-0.9201827568106936,4.174601967605099,10.015944822636147,-7.0467755112318695,1.8744441245708767,-6.22090950599313,0.015745907928151948,6.348217299688153,-0.18319996624876264,-6.786541207268565
-10.204558037879476,-17.149566609027573,-11.566086873309477,-20.846305336433737,-6.611416116047883,-7.221892517403538,-11.953156275629187,-15.598264158665856,-14.39793781904337,-3.5087183215353717,-5.683229646368229,-7.147113146028052,-11.056933429117954,-21.583124358765343
-14.081331121840202,0.3756303551789275,8.730655780471583,-4.695025051132984,-10.88319192089303,-0.8248582810173031,4.483885634352774,-4.414849630262895,4.698286372085318,9.98705817346694,6.493779587174023,-6.580795584060345,0.5540296879376947,-2.6060508413709638
15.47450097333689,6.34380588985044,7.710969974767733,0.7888807665167628,6.964360640431957,10.051507120529138,9.4356186892572,8.614244104473244,4.499577845054943,3.55606900770192,10.13345968415589,1.7757587855108863,6.51849763776748,3.9180461943065454
-1.7851356741150852,-5.234057944705837,1.4951094527314046,1.6291279854574365,1.4247966137961452,-1.9199034217059618,-5.917425251136629,5.317086172686621,1.5435190744114928,2.0376990285455716,-1.4836255976729351,0.08859444098896807,7.335891024771064,1.740925603637817
-25.23980269860959,-22.198976834919392,-19.505244200054193,-27.126591984263708,-28.951147335417335,-21.179476255209437,-18.137620947295787,-25.083058056597388,-32.136983243217614,-25.724208072000554,-24.178165174752095,-17.70495829577721,-29.621207418137082,-30.68539954684617
-38.714787558704,-42.76330969071611,-32.99076624390164,-32.334694569328136,-48.50956632880526,-42.31552368728827,-36.86240943054813,-45.3285696014042,-35.957074038292305,-38.17741961223321,-41.38091498525637,-42.82559473578817,-49.89828136013825,-51.430873093137734
-32.88064430584886,-30.22243346672054,-22.436276009007276,-29.326345461035398,-30.018535344787743,-28.91621385561543,-28.60449271330463,-34.246665324016604,-37.43772683801832,-25.04370370136854,-26.79183919589996,-29.895833665077355,-21.922372892584605,-28.09970903151669
8.86529547816721,11.722270486553015,5.832716430510838,7.0952153969591345,4.8035546841843555,9.705066222503692,3.577347874891709,0.313812030053775,4.689251460510958,6.017874088495265,5.002951770379607,2.10136903256899,12.206462266351881,2.369419111709762
51.03628295537658,54.12639842052584,48.24239000384155,40.24720009000292,36.38405887006047,53.09315564076691,46.318411127261925,42.945280358793994,45.82884136363916,49.994805320455576,44.5939762037028,39.97060525906921,48.80813441777607,40.75320648689645
66.96549179713635,62.904440736044705,60.034048423340764,54.20048393289986,60.423876696226976,54.297672612353715,72.28065035360049,59.79817406942563,67.41058937657685,53.11988044963171,51.704636107551906,57.58034080487548,62.58287791225752,60.20015134635415
36.68652813420756,32.785595676069384,39.279529402395255,34.12124460137941,43.92592424852851,38.82116441903136,36.02641877428588,36.24954148590187,33.64795850350958,34.06890638220922,16.303969270751804,29.32344370320897,37.48453234584838,29.393761932219505
-10.55723990843318,-9.48904714722781,-11.165798522589048,-8.742970676716475,-6.8315139118240324,-4.458138556211736,-9.428559676284095,-8.833929554878283,-10.223702610868493,-9.931180351006951,-0.8827310456790407,-6.444863716123169,-12.567413910032757,-1.577921120676212
-60.29450974910627,-41.9224539364496,-44.038131443276136,-45.08836457162157,-42.87070113160942,-39.4091889116898,-37.03789556634308,-47.08557168806417,-43.977553021219435,-44.06302443224018,-50.02267185629934,-44.83042676639965,-51.87200216641656,-48.84623469558653
-50.49579304291872,-45.416413787146496,-42.6865665463211,-42.09148106661384,-44.48111390080462,-40.88621512906303,-45.00704626465012,-40.78636803479951,-46.0451579312808,-39.16504006251923,-47.15925294769019,-42.83593159392645,-53.87681150277451,-52.24717351950885
-20.46215812326014,-23.79534608611681,-20.193443623857064,-21.36848577061004,-15.762774201971514,-29.90825017907278,-25.588932110292284,-22.483834105530043,-24.453758974885986,-20.308806602336997,-17.85094654107969,-25.854114554719423,-17.378550828068274,-24.27752353385528
13.887076025869453,-3.2839010828222825,2.088871934359048,2.5833200673433963,1.5991921145492185,4.952901083865518,7.402484850184539,11.20992283512317,2.448671471672422,8.317119038742863,4.932297304184855,6.3898368532344545,8.77409387533611,8.293637485269617
18.051701651867592,31.681508866575637,16.669625098856798,18.041404647680093,23.686874980386285,29.189934296233666,17.9236934713486,28.97227239187427,13.374360387877662,18.66315955264968,16.94069029501701,20.66123984750842,24.41297651032582,22.530904670136607
17.111765627965585,5.855430585934986,6.643192883296976,13.024342629494651,22.82399092754748,4.707812477469192,12.998443631338327,11.081933065238955,15.304197235800492,18.758889275980344,4.503416441935611,16.981611337537807,9.510897678268002,9.804456532154767
-3.944584395492491,3.3143977918758907,2.0558107767474056,0.3372255957278239,-9.618033740141167,-4.603023850648198,-4.679380175186158,9.127482133909929,5.832095372676926,-1.425304652744934,1.3422097549732561,-3.2895052265591374,12.472738702499791,2.7040959234317716
4.692360075806151,-0.6441263262349031,-0.6170509333198884,1.3568997624460444,2.5605373462128767,10.977111231115902,7.610032582758703,-2.464671573307143,2.190042830359874,1.624548894443539,11.003316428164695,0.041653565481887256,1.919099814154738,1.3662216125431927
25.303916620420217,28.94226291850984,14.670123743385913,25.75566407508549,20.299752223278833,17.754683317607018,21.09614830900743,15.88292250145566,12.953245256811005,23.726759146670624,12.27928148069757,20.716053983858483,15.500600493751513,27.81590775984564
27.25830462809008,23.09376072515869,39.70895572643309,29.811258599616743,33.815003800545725,38.13965741442061,27.829087257281525,26.125048400753027,35.96379816761445,31.97407073218702,25.45985381878325,24.270539552235054,40.53609687451461,28.84705787603413
29.13085597139032,11.07502673840228,14.950417073407397,19.7880800399369,24.20189756846279,21.42947567669944,17.15276393540876,22.237702729689627,24.379016014244215,15.668253774930006,19.98222212561032,24.316598301341045,18.927394437171365,27.951184181264185
-24.590413298717174,-11.777523583515965,-10.229033752898749,-4.600100345466778,-20.027311707194663,-17.59475166608039,-11.87777673108855,-18.131080005163923,-6.316781318474799,-12.727110031148314,-13.446677647480385,-13.281841542560057,-16.084442166344314,-9.530225345776085
-49.231286516713304,-48.994999773246,-58.54740069150023,-42.250449387474994,-38.80418961303597,-49.25096686636981,-39.8676967814621,-48.636993501098274,-39.716719885805986,-54.29691924708346,-45.134977939167015,-48.51907862874488,-58.352987449205045,-54.2041444479626
-52.13654221097977,-56.19002567903545,-55.89859792122852,-53.35744882481305,-52.381713417635694,-59.54618974553704,-55.22871108974889,-48.53844124972708,-54.63440911311162,-50.00018720080605,-64.21720009068527,-57.820606548776205,-58.06227176874829,-48.10599993214897
-15.30234961751754,-27.944410211436367,-20.928472781404448,-25.748066453895113,-28.68904263331549,-19.065827119802346,-28.462336043230486,-22.742741862109465,-33.99694515923354,-20.94488713390332,-29.61715229331223,-26.352850249523947,-17.806010626790215,-25.50400985141913
22.211077464034002,16.82475917595518,17.220088848783213,35.19164282561368,25.925352887910748,25.813894711068563,16.97055501595759,25.033230890755775,23.565128636783943,27.35379548983607,20.14739809630414,25.616049260328026,17.736895360506924,25.02055234573151
53.702674049365605,48.85266947813368,52.48761955984735,52.877553004219735,50.434419554602336,46.12482792287383,54.67591184136665,58.716621660876456,55.61069871925631,58.90549892922322,48.56884040544166,48.49043725225915,47.406694401317594,53.50537501192772
56.60340656556595,44.04517704683556,45.07342303978183,56.171165371856915,60.06859343319682,41.82270366721382,42.26522265307536,47.33700903136725,54.10148257695244,44.839519029791646,50.99412312887022,49.753719410672296,51.978771126704,46.6688454611964
17.502182383903357,15.092219428064201,17.765072115912528,20.580902111571724,18.20206963350633,16.967779759030964,13.66664588301439,14.962050902428116,11.963169215101477,22.74099298097472,24.65186462806202,20.51379612211005,17.50858361577304,16.58834976879153
-9.361918101760605,-6.792133096922171,-3.242497262491865,-15.482205535584756,-14.141211365583807,-18.4450184796378,-11.959664328218643,-28.58474766138025,-16.73745789743084,-17.50465980316506,-14.639813176378617,-6.178831424158519,-23.824883146828732,-20.14427100748218
-27.79709992466187,-32.4371879993626,-37.51084013264744,-28.509242067025784,-26.592473890472455,-32.5400316213689,-35.78998816862507,-27.94463474227682,-34.32352808395624,-34.709743028639956,-33.232672660424974,-32.02430610621705,-30.76341741398424,-30.34380344176417
-15.553457139752243,-21.94493131930676,-13.01446045014905,-24.591875358363872,-23.18809511018774,-23.140825137125287,-19.24361691179342,-17.404612980961566,-16.29021439776241,-18.8690591168245,-19.730555584523792,-20.65806286867356,-14.20090835825932,-26.83525253384997
-1.2918264439621931,-2.643531256110702,-2.429202144321743,-3.0893574617008035,-2.1530326287250747,-5.227958637547818,-2.5670498366316545,-14.925089069704658,3.230763673406221,8.8223256032579,2.6106836376596485,-12.771502204575594,-4.806588100325344,-3.234500327125347
-7.6669624596276975,-2.6736372618237225,0.697583920284524,-0.5438644360301075,0.8353371967950725,2.3843893166339583,1.3627374146880584,-0.553435420630344,8.879670632170624,4.971081964694815,-3.6612296535443827,6.614771220610654,-2.7250069869159406,-6.456743582872961
-10.179915747810705,-6.702943920819547,-11.176999065838764,-9.43696111538436,-17.977036729619982,-6.759817693508439,-9.490459360368643,-7.5256194815749415,-15.810515742211663,-12.821672829474682,-4.5136174907271895,-12.52180047792141,-14.287519750993798,1.9480575332953567
-20.610798203593188,-27.147298867342162,-20.920612598015683,-22.86015926152454,-17.69197438625647,-18.033220753436993,-15.054538913870164,-26.6149565342626,-18.606842762603616,-21.746773622221394,-23.28905479066519,-20.026807392747557,-16.414612277060172,-25.72008420823033
-14.109482977817436,-12.518028814528098,-7.496967958804614,-7.502257946090066,-8.199544979403115,-4.087964022982431,-5.541351374846478,-5.217540112864105,4.739926489958382,-17.53456278471399,-13.560162664215003,-6.646179417121427,-8.394121927310906,-5.81381642090717
17.24691202837233,23.36235332199614,16.33982494355965,20.2073187648355,15.466404484955671,21.63915789801319,22.90764031735812,20.485077166755953,21.86319363316921,21.268686550391124,21.936382784303333,15.80899767767873,19.460294255079944,18.663012793421913
49.040932909492525,47.94110275362244,43.99169332900698,47.75366536817362,38.62407705417822,42.987256675657136,49.8620943961943,40.850928432052314,42.860734241371105,44.14300190257182,36.16628888528361,46.09819443157587,40.38434878346252,50.55593040773202
46.89195827657292,50.24377489029055,46.43436669888692,51.58671640670261,38.597434210369315,41.050628136746866,41.36966489241093,41.91758291528933,46.22611499154279,43.41145453464963,44.14134661029269,44.558199851095,51.49832388037007,42.91194368702075
13.754462914694303,6.791336097389841,15.685872501187427,16.59253219648661,11.460604321104954,18.845987501400746,10.642806792663398,15.127101872845467,10.054388448142666,15.732970277395957,5.818122060733985,6.043905001408117,14.053417942775447,17.399358955786397
-27.622196905872944,-35.13465272384406,-29.381811907752503,-35.68273591140871,-25.04000056656772,-35.33157292682667,-27.69764669759884,-32.43725217668653,-39.285722468727236,-31.13238403575502,-30.882126192828537,-31.23160270664567,-31.726560995473047,-34.77577428775017
-47.834087098720445,-72.45501648967607,-58.31209652330922,-58.56760675767114,-53.22401465199654,-50.42047797644731,-59.14647589285486,-56.81414990879054,-57.31633471415882,-64.85064811766784,-61.12769654939736,-61.7386366346192,-53.11481883436145,-56.12898006936439
-42.203052012214066,-46.06752237672643,-46.67486644443155,-44.47765039300632,-51.94576553138759,-53.79242860231335,-49.40930896720673,-51.21357363212059,-50.79751966634341,-42.9300314502873,-46.37877287952938,-47.25436010607623,-45.785599945225286,-47.15411253688762
-12.443891066891943,-3.2251739983044647,-10.248734005350677,-11.936545716793812,-8.277661633708423,-13.445320929881365,-10.277100705362571,-4.751679441988758,-6.5246202839313,-2.749357905597366,-11.46517002327989,0.656872441031366,-11.029951754501932,-1.961092478792244
31.598722608108318,33.331667844373854,34.110099636873535,28.730066936325002,36.23308764995497,22.736879911352933,24.422213331775488,25.02989186468357,37.27774525080669,31.98681209918861,31.246023738534,31.96172062441967,28.221826318299748,31.03787902012704
45.96500809175849,45.075358760425495,39.59229030040231,50.9175947885018,42.52807344248234,47.91029257013867,45.02035849343716,36.598617461720536,37.42224030932642,36.61644835686075,33.5586621195242,43.15791985865985,35.90395123579265,41.64274817772913
33.24383714375256,34.72299006807266,22.894656210659807,24.296607737087918,32.60936730024119,30.81717403916803,30.75428396331386,34.70080958756432,22.34968794463216,23.89831500047328,30.66030862719023,23.01811706752654,31.3894084271389,24.929021753295636
-1.4094854427741197,-2.846053752512062,9.055068249094898,2.583880336429639,-0.9864443279174924,8.67114723936061,16.972030062480208,-2.5467392312302577,-1.1727893330556327,11.515427242861508,6.982397221215372,-9.158232719559315,6.687701682586674,-6.939866755221761
-8.2249709875804,-5.926054480134309,-1.7515198707634045,-2.2443336260277515,-11.38420150249271,-10.76954281942341,-5.5446193906604195,-8.917246718639836,-4.227075327654848,-4.623274563116524,-3.209488105411932,-5.365851970759803,2.2177848141011633,0.03927904723903275
0.10625449083083272,-7.722065289410381,-4.059287869684477,-4.357694537382054,10.267211801745422,-2.9876398221235285,-1.3484514230635833,-2.317224535868699,4.920569969900768,-0.7305604884627399,-1.7799247737193409,10.226051712239439,9.920512010385291,-5.9942587789589705
4.541243264371655,6.777123827220695,10.635119626090034,9.405805699559346,5.791775901809295,10.592502302894895,8.304396198898461,0.3540746991597956,-1.3879090755527947,8.568850603597802,-0.704681002392956,11.377413109832952,8.078004762090432,4.3702753933630305
-1.5774072984003862,-9.112494210479452,2.294188427942228,3.79219655648848,5.216191030527069,8.059455521331728,-3.0688056803595547,1.9580387877391054,7.3988968923231875,-8.267410584638284,2.9512144386194272,-1.7518574010655863,0.14389022397174145,11.351704433067603
-20.6742510965097,-12.999295835511987,-28.660390088826375,-24.89129873436823,-14.101438273757218,-10.488780416271492,-30.53469029811315,-15.121449427205716,-14.70999207575706,-19.04674138082866,-20.381480214975397,-22.027353770215175,-25.714847954634465,-18.749076545569906
-29.396135802297223,-40.00975955923875,-36.89433006437114,-43.88783386521672,-42.05916311593839,-34.21660482768451,-34.0818193848346,-39.44641146146448,-41.7939008887437,-36.661327686706606,-37.928212659308464,-37.741919326433255,-41.73556481533814,-36.30205545841263
-36.270336861643386,-34.613749961600924,-37.89148219790186,-26.301131053770924,-33.74143424685173,-33.684366895167365,-39.19166721340817,-31.39151940085666,-30.15618189145463,-45.1678103961762,-37.58131550545162,-30.706165080661382,-26.19487864146452,-29.379309913748628
5.037624883713697,-2.241198793842407,-10.554529092977416,1.7528137334714486,-1.9688507478667505,-6.473519166410074,6.972651960910319,0.5782067820527845,3.382893201724751,7.178387639393527,-7.166041915616511,-0.9156651707263129,-4.411380874522077,-1.0849509546086331
42.88388437390206,42.97506237460145,44.12555384244465,40.1391439390542,46.72869178921573,35.46975091634319,44.5006865072366,35.86382988186188,42.588418712407865,37.13572353430282,43.76787205548608,39.38797610748574,42.35565940125999,33.76145746599054
57.29416920093438,53.65184508097619,59.30115170387674,63.57466278417439,57.540117447081116,58.4125864330822,60.667056903090405,53.7667332302585,58.870937173369434,63.1825501807941,66.8804656747955,58.71452623868745,68.15728990963142,61.07503077295066
43.44037032169379,36.87644812121883,38.15681190013077,40.271167487845624,34.148173296941316,40.403194149963596,44.561586917931436,43.43106964673774,45.42632471463011,39.709922415247604,45.20464651350982,30.122667523512675,38.967652056650124,47.5551997057018
-2.51265727536624,-8.157148451080943,-4.4695829298964735,7.901044280130628,1.3886468172028357,5.433661091141603,-0.5268324440298585,0.18302778834943934,-4.93573370493095,-1.3235179970152147,4.898877892379149,2.3667090003398923,9.660282117784032,0.008538472906116201
-37.962592833584615,-31.405776420115345,-42.81767991424548,-40.19519795436439,-32.127574636460956,-42.989203835545474,-43.0783314652954,-44.82139536556323,-33.90828003172662,-30.969663605179704,-42.60936321393419,-34.666281514793496,-29.882330139237002,-48.02111927415826
-52.146876294885814,-48.51307137767989,-45.2012991714719,-53.68817547682616,-55.82305800681913,-48.24552118860232,-44.90612054134922,-55.328885282363444,-45.698052914054585,-34.04016624854995,-45.736726778228785,-59.06321173182687,-42.045394021567326,-47.732616190129995
-30.496553398330406,-29.94403434623495,-37.49009068744945,-32.4054911432781,-21.942405209519972,-24.88913769665026,-25.10800442778578,-21.275853705305522,-23.628065623358193,-28.205351120719858,-27.497637021287105,-21.608262207750073,-25.799814350773225,-25.185420810133248
-0.886812622404844,-3.7448710057078687,4.1592500396955305,-4.764132207992999,7.812164929979986,6.503248844741712,0.6736506697187954,1.027059418963601,1.380200711616078,0.505028533952856,4.633063313009584,7.532206524235522,9.087667593810808,10.612724799620189
33.09886123789943,10.054382592033665,28.55279166109733,19.206993794920848,23.34753766747704,13.595459245502033,24.80835700108396,16.104710248350713,8.378023515953613,27.77228966373211,25.837682886247045,16.711759744483665,18.300391190078617,21.673129410028505
10.693419666278412,15.474261225745863,15.870104555519612,15.177405723053203,8.960575662590701,9.784182687453221,9.609397331563354,20.802163972430353,11.042043991232953,10.017074667855427,23.943139872881588,10.964274552300939,15.818184824758964,14.200830774465913
-3.477033938257617,2.4230094166873037,1.7115149781396752,12.708687155248303,-4.688161729311382,-0.4289549633644487,-0.8113979835409677,2.8815696860998763,-0.002842842339160212,0.8685739479919561,-6.716341701089895,1.1750422666839717,3.5600746711689184,-3.5923427546350784
-1.1528333867738967,-3.836044748259443,6.3400888190510845,8.206138270404022,1.2756311114106644,9.905665641415768,0.29628527226946666,4.478252025079222,-7.15369375251988,9.201381842672667,5.72019521079376,15.19813392707112,0.5265719601741597,5.007404117338462
13.647773090208178,27.48642511312301,10.633357899310049,24.48374647443154,6.163739629623755,25.721306468379694,12.507123918283465,12.24211138365117,12.124817981003247,21.31471311647044,21.725485388622587,15.240035936156076,9.14104788235914,13.508004750558646
31.557554881074996,34.902675345355405,28.906540834642417,35.32058860449147,24.06914859473716,40.20057145296796,29.346323208094997,29.36173589947699,29.229487898412323,28.560295017179563,28.54354949461862,19.573933041239133,26.150201945557715,36.065547275067104
17.36182202371073,23.207393920306373,20.23365086496707,32.505043703784054,20.339020072389864,30.135874988487828,20.155558563356802,18.6599657690944,22.54472194698655,19.546687946841054,25.639183196811846,25.122178610142235,15.24061867239336,26.169246167328893
-9.783663008900243,-6.451629755153718,-10.145527767348545,-4.6191482616009125,-14.865271922986713,-7.940795884439064,-3.9398656367064566,-11.51446099105631,-14.123711183180522,-3.203661771176984,-9.773867833293208,-6.857462652600841,-3.6062409830094033,-4.7702069638333935
-39.7154579381811,-35.39634083575699,-47.04745667250385,-42.43088378970417,-49.95040250110152,-46.97874329429762,-35.498863375820086,-46.092093439156294,-47.439859423532,-46.50737431889111,-41.657597136063565,-46.07507977034773,-40.01576046435523,-40.558454529197185
-57.73742118847202,-46.185334915663354,-61.23084850986226,-59.46977713476349,-50.946592958276696,-53.104756369497224,-53.74936662881975,-48.55544113171529,-58.93720227079604,-55.32917735574958,-55.52972518517344,-62.40956163379914,-52.28400277993478,-55.768485937010944
-34.21630398862249,-35.041435847160656,-28.459071833901604,-33.47149610747369,-26.190786668032597,-29.201020087575305,-27.70794476609911,-33.336047269439,-31.553829949662223,-26.097256913207318,-27.422657699989422,-39.194124383046066,-38.661016915555926,-37.55352637417394
15.359353850678275,13.70632477429795,8.850141877479988,13.284878028965498,13.453664181198244,17.08306330421672,14.29884421303152,18.422147613373745,11.164207599153071,10.855062754342448,10.121708176268491,17.517976218669304,6.406034800010162,11.997238585792996
53.37393341951777,47.31285234269698,49.585677376174736,42.628293937308555,56.6928246835333,53.05919587251844,43.70047412091427,47.03699198101165,58.87292464030429,53.366723577032595,44.13933183863955,47.08101429567649,54.33766015373728,40.74901321176678
56.64737414447025,54.25380592449011,59.86973151293171,51.46386992349698,50.97646834863427,53.29494523399781,48.62010260461486,48.927982786917305,44.7816577116394,67.83491236976978,50.399012393306286,54.041771628036976,52.91986469189279,54.22781314994134
26.777720154071385,27.05657565016914,20.742613379302178,19.00551269128986,20.05240325129116,24.60287979768807,20.887918921657892,24.009106420262274,23.0499746007837,25.12136453634691,19.2285289656415,26.045830513358272,28.622306436110204,24.658762067744778
-6.071341576193685,-6.526078678847378,-8.398216936456768,-6.553835627362674,-17.486134488273738,-10.567604334308333,-16.08435767365513,-5.2273980629243955,-12.401365925703848,-5.404528237380907,-17.431397443127608,-24.794852437063383,-16.602309964148493,-9.614940569270392
-31.933442294833117,-30.470742621751025,-25.16584837184751,-25.734224045393013,-33.9727781082182,-33.14145834995146,-35.21365970055075,-38.668478573383894,-32.56954456855821,-21.034540447483927,-21.60173240300293,-35.081008793540555,-30.299689128118242,-35.03200835425284
-28.468877215277868,-25.576705222010805,-23.301556431313756,-23.649678168325238,-20.187746716068126,-28.30363858596914,-28.842613995191357,-26.37051266520789,-26.71719885131304,-29.60042137456456,-19.15821811453954,-26.120585668931714,-13.0124694944268,-24.506690089327286
-3.1151266552677312,-1.2708497911467447,-8.427325600436138,0.20037888201620646,-5.5845930071794,2.882309527686129,0.2564479857262443,-6.437121315326322,2.754817138606658,-5.03312537335752,-11.093329816555393,-0.017565835796677476,-15.00523779467914,-4.2463488251850485
-2.1779506621057507,-0.9106265703742091,-5.361722831095288,10.835765806364792,4.767567643775395,1.925739567127764,-0.6811602744932632,4.671792997065296,-5.951511775652492,0.6353786745054891,3.998521602301417,-0.8366158780014454,3.1250513171261445,-2.736498763826642
-5.8723595482932325,-13.511201800861397,-12.167662518889102,-9.855942422121316,-4.621774412589424,-14.15495826037198,-3.8839701470808254,-14.143119962312609,-8.653120682400024,-2.753907495207528,-2.9442981612460306,2.9830197155988714,-7.094324109872194,-3.610499478165269
-17.55653350929681,-21.372494594117452,-14.217714291609203,-13.167423162796332,-17.751444700670667,-22.844543525132217,-11.75133612728363,-20.719497704390236,-14.773167274163848,-11.319283880772671,-11.746064365924052,-18.664336391808025,-19.4995297557822,-14.55323605697918
-8.40094272804743,-7.355977265455121,-10.754811345140022,-6.492663259781606,-16.900368469357645,-12.904145958939548,-16.283543248542212,-12.742609889538842,-12.632333962480573,-17.52269574784308,-16.478501720425612,-8.905338577355337,-7.825719688405694,-12.211684842652312
16.347388304559487,18.835245377212978,9.898522216852706,17.29473845912444,15.766288061809457,9.826660811644755,12.547645854288902,13.875891119865614,16.796891268479094,11.725250903046216,10.710327366786881,3.699238105212105,10.053761144201466,7.900123891164263
40.958575099917105,41.83077006501603,51.38434335836228,41.3208704181871,36.12139654730986,38.627005660585645,40.201150670444704,48.504630381370895,47.52141295411816,36.88928744395276,47.91968896180815,40.22873805386874,47.33266022174898,41.82348968990217
48.54975353973117,44.57424183189041,51.384159966212295,52.446015998409614,52.066514239004185,52.586934691600874,51.33390190062807,55.078452424321014,46.756511021353816,41.21113005436552,41.887261940827166,46.258202084846936,44.93437894139964,49.78040444968232
13.224904295768974,14.181780101137914,26.93343743906073,18.75638698067436,29.740540888820703,17.31043420755496,22.4123011685933,12.773420033573956,26.12572332483647,28.326878739884837,23.303697947320142,26.1238285713156,20.766958535715304,24.37011555055594
-22.696420028776807,-19.189719996193645,-28.110584282138376,-29.637297693109115,-22.86536986270304,-25.550891973638734,-29.206127862763893,-21.976124449362658,-19.258837355395944,-23.232894772345954,-18.49761556696879,-21.50637630541981,-26.560713920792715,-14.28280194600968
-58.3181366020613,-61.96980647581931,-52.79830085573425,-57.490589437167735,-53.435913571568285,-65.33645386161308,-50.85772245194947,-52.38486536319107,-59.1806994471057,-61.060343098897974,-56.42683229800962,-55.58865508934197,-55.27103788759622,-60.562436524696054
-42.4983571130609,-48.382062126738106,-58.10886380935662,-62.95179463625018,-48.07593648132547,-48.30298811239773,-53.99699235424428,-48.8792577258767,-60.911262817479,-56.9239904992192,-51.86819632500913,-49.557467253878905,-53.7035100732402,-62.4197953169323
-21.647267227407156,-24.90170226442954,-15.886428409314,-14.871377648938374,-3.324436435800706,-26.122389778977606,-27.771721528138944,-22.099918866014548,-12.459840900558302,-8.826720144852866,-16.26957330607358,-12.889546639479558,-15.955851432980362,-19.221048041073978
11.038899805051592,21.463750371169557,16.953442940193106,23.703858635791157,15.299920506698754,23.32901197473451,21.24667987441141,33.16599458873743,27.11896981231252,24.48269923814541,19.931960718348243,15.348835956259002,25.772825802322977,22.97154947654747
42.849912391483166,36.84063529500044,41.59647743610773,45.75284949450368,32.769049926661964,43.08066978872565,31.875421359539743,41.67549954974477,42.86926003120257,43.05407692436686,42.323115853753464,40.369722547280524,44.05438472038729,38.126142100604156
28.509367930235857,32.534297526597875,28.833158006996257,30.13378487180257,30.556868220860274,28.646324046366786,29.672218455195516,23.754406394707054,38.39048965331997,33.843890459140844,28.78561088672206,25.982066854308044,28.559390316884294,27.74937736946546
1.665230368418685,0.8072516320475831,9.786038044142199,11.046180302249962,5.007499022307285,3.7795129460311214,5.202979513843213,17.77952986616221,10.3719720585263,9.027699059957179,11.375602930157884,5.727443988971768,6.32484036521044,-3.1811419492580306
-4.9282464035255185,-9.119003562132038,0.13661861791277996,-7.822829722083897,-13.176960056010971,3.247352631072749,-4.526572714057339,-3.07687938405493,-7.56573617940683,-13.24514495253204,-16.53986902047245,-5.563868684533093,0.5305931535201349,0.08790224609558539
-1.2181876417254918,-4.32689644227352,5.875080495840105,1.3939099371069599,4.1972159302105405,-6.039688855689957,3.2002483624925055,-4.883457684583838,4.21265077388501,2.0837732399922198,-2.719081994857034,-3.7729404304849457,-7.569476485576982,3.6272149730350183
-3.038871487532745,1.4877161508148564,1.3506978041161224,4.265935052941137,5.241895590939529,-4.242139839129333,1.0038670129839877,1.9104896355559733,6.748896900075506,13.123007039677862,7.07752058596207,10.94986464978273,6.5405910647614505,5.451070713897002
4.7688434550728855,1.0587663543611563,0.2737440371359945,16.822973878730537,4.412897997559691,2.548843384947327,2.6147499142380424,7.004297064142985,-5.7269900055651775,2.0649084357066996,5.0651269788449635,10.063384764828037,7.584138362677111,11.992088087573897
-17.185747124461052,-20.88316388526976,-10.97571667303433,-15.709900576432242,-28.450365925028105,-16.82898219166926,-13.900099662766328,-24.44638990313333,-8.69148020302679,-19.000312862087956,-7.855400532537415,-14.441625717598313,-11.148402067911753,-18.221229594636174
-32.65835712137111,-33.98637410192615,-39.73572249026269,-30.899078330168223,-33.76546115202419,-28.889132952832483,-41.91173836761459,-31.1703903127907,-43.27424547985394,-35.41629007255713,-36.077568027266764,-34.92171906289379,-38.0666196148207,-43.485343466985086
-37.749092089634686,-39.78568434549696,-40.65857707499282,-38.03048341251485,-34.068956202912005,-32.47333089761663,-33.15015696931177,-35.31213628834232,-30.497303416834775,-27.72254354084335,-32.28312243122445,-41.27403424182727,-35.18551913786234,-40.64551822141683
-7.92499895302747,-4.3802938076154625,-14.081247749828421,-8.47680390891868,-4.828934546569721,-1.929289992566975,-13.479001417857592,-14.092986033605722,-8.40311644411025,-10.284815831882508,0.6589139444666774,-5.5645740682831075,-10.661541792523002,-14.344799792584515
37.73354424225678,32.747679478487186,34.07291230682188,38.18425273818312,28.00810614213161,40.171069801522506,36.68485874913007,37.80343545115353,40.50314079461206,29.892962153503923,29.25214316485568,28.767899807724035,35.417157287768056,46.79962306234112
64.07937723098168,59.72460894699161,60.49890499084379,52.37863245174718,54.03972560574805,58.454998136582155,55.15731250342277,45.66472093501312,53.50680345995229,54.59935526447572,58.692252592328835,48.38145589797589,62.007709455993094,57.70418899922615
50.012962284941246,36.40244874457497,55.174671992471474,45.980452092102134,44.63457540433555,52.776137496650904,47.01544341009514,52.58982829419952,43.94966937028054,40.75639775909507,62.39526757821387,47.76182951127286,54.1609482921245,53.94421760797321
9.856163155878118,9.633867694860072,-1.8875332133224028,2.563282119829103,12.639948531540622,-3.065372001526807,0.8154352436655508,3.291797665811661,6.773204088427801,3.2741767967828954,6.442647190884876,6.363806905682715,1.3136008355787352,7.748932772155854
-32.56666670151408,-25.861625493096167,-29.712292839662453,-36.91838080820444,-36.90188320421349,-37.935041697075626,-35.617361144148695,-29.1069766911039,-39.07739133462272,-35.994678958408066,-35.38843329258265,-38.46650690251716,-33.59627546588072,-37.53712215791903
-56.307341558112334,-40.75962300371384,-57.0801420630373,-50.566223090687245,-56.311700105608224,-56.27891334164807,-48.70187748093464,-55.61486361783872,-42.71429238844836,-44.61059313521749,-54.32634104538571,-52.9077463476161,-48.26372678359428,-48.77952250494677
-32.34627174579041,-41.22694208630233,-37.00749213308694,-36.43917232981332,-30.303997973250958,-39.15314359684908,-30.055446197915884,-33.189799083456094,-31.41580810451904,-33.74460434076475,-33.4110312379722,-30.10699869910204,-32.350610401001774,-26.683431641667305
6.206067861153684,1.4627719060262319,-8.922861762432028,-1.8101486327120364,6.822736926007654,-0.04989227650300032,-5.52416660038069,-9.683290583941115,-7.881483659961676,-8.267263787452231,0.5447816338134785,-8.77783408376869,7.8304808740579155,-10.897013139876
13.744589933460178,22.005180626725014,27.45667516937521,18.094405511453974,18.667650512542004,25.648394998025445,15.847111268432808,11.865474196497324,15.20412651167444,12.188254932252507,15.492174990245767,11.061468332823393,17.527108249621474,26.565342424712178
19.639542598887,18.7006801036201,14.974280915436527,26.55617093592728,18.285001678499892,11.35981272558887,13.183430462367644,16.98158638351205,5.54327066710564,19.95327460282953,14.202150649081549,14.835170083986394,10.364973203896518,11.412169278069307
-4.565616766527941,6.069412938768419,3.015783548557917,-0.8702812853554134,5.60642890957091,-1.8687414941270415,5.618952564026928,-8.260181305276376,-4.333817890191979,6.605985059631156,9.05452151723242,4.372322750323435,11.81196264644341,-3.089540394176292
5.045968870720474,2.0688926532252148,2.132500225882214,-7.954100581530874,2.8749887783837997,-2.330069776268033,-1.8321717324866809,-3.8447298213037975,-2.5504240663201014,-0.05189044229391643,0.7885785800830987,-12.590884905740664,-1.5041988290560233,-6.942222852217728
1.0871328604388495,16.015721937808635,10.750207743574414,10.583543797982083,25.255161003764194,13.995013800551021,5.896956105841364,14.027875584680537,22.239071904519378,17.19411176221143,13.604363869408571,11.402351977483995,14.331048482152138,7.530381311128311
20.893034398538674,28.60261938045729,21.866875039639716,14.506825511903749,30.725890046938606,27.786332965668652,18.322317226247097,31.767869532554705,32.419363533455765,31.306009737946937,20.22473159851142,19.56641519277862,27.147098786081603,34.17849344939173
37.52287838462496,30.05694162598611,24.01224561670471,27.29178038295068,18.951841158096116,21.17806828921548,22.873081739321012,23.598956171898113,26.48218582859375,21.186086511529762,30.955101950324906,36.32047709955549,35.90765622155699,18.634691153739073
-2.3082888747035257,8.687070577234277,-4.674431362420062,-2.511217855354908,0.9699905743948358,-2.384867393231521,3.1892783741027415,-2.489904905340932,1.0605250750304465,2.0938968634511665,-4.66238049276214,-0.1735571748375775,-5.464267951205436,-2.0807802781993523
-36.62339965548139,-37.612979010955584,-28.084334664248104,-37.95409741378605,-38.39104389474115,-37.44326318578547,-41.34269104340652,-42.11339058457939,-36.40643881914871,-30.77492709266497,-41.874357947672,-36.60483743479998,-39.071313371159164,-35.227658089912374
-63.5822853727267,-58.73702299451438,-62.69463755147721,-56.15039989280485,-55.90695370505101,-52.81239768547814,-53.664873144551855,-54.24478234797203,-54.46636931805172,-63.21155488536459,-59.686439763068016,-54.14187848466442,-46.99722059935682,-58.316271004310956
-43.35666341418895,-40.01156285339919,-36.75322011913878,-35.8124300845397,-37.437105763627734,-43.19012799790863,-42.926679661305116,-29.08723549216434,-43.02318802191721,-42.8978681228039,-43.934791337811944,-33.11339375012235,-39.47682798550404,-33.16096413304634
-4.573711357354465,9.912261872204724,7.054287597697238,1.545618501737902,0.9865446950222037,12.509294626387431,0.3963705589732811,3.2307221524001632,0.12609643907510915,5.545954615660694,6.352242419568298,1.221786756981483,12.838051095496896,4.723158600497955
44.53811868310545,42.469803795955535,46.367015468646855,40.45438705659018,49.81256519455384,37.25458592798548,48.92539073504704,42.36825763336703,48.07517676812158,44.82007692049162,34.76101078491439,45.106722981176304,44.56795060628317,40.09176794268103
54.98425006463755,52.61071677266156,54.12385433628833,59.34718258287352,47.92067275492727,52.79006775038988,51.22734675983088,48.04431421882216,47.83541278443897,53.401296495148316,57.98515387563642,53.08528815938211,58.8362624128854,59.570501635440735
28.031558773486772,31.768166910850223,37.728895066361574,33.856600233614635,28.952187950828268,32.508172139884,33.099027429449954,21.227877831449106,37.64528237110487,30.416834008210287,30.049242708770986,37.99579184896918,33.60858492142869,24.64946776833215
-6.548817634096575,-10.258722947911462,-8.79671560595823,1.3121491175513267,-9.51763008191098,-0.8839577536397467,-3.1705208629316646,-13.325506405860462,-1.205315054731921,-4.614567367165285,-12.631435035188183,-13.333844981551291,-0.7911129479987551,-9.715501525177757
-26.650130909132493,-30.04306763136624,-25.079986763069847,-21.685816616324022,-32.2079149916497,-25.721174310677014,-25.6920935955331,-29.444442496253572,-30.58107669365306,-36.33882804647087,-27.997817795370118,-18.84120475533495,-22.16585972278548,-30.812788713934978
-22.462766806846165,-16.65465868448237,-27.981595072670387,-27.896548326006993,-26.288700380956072,-28.293906019294216,-34.85450711620517,-19.267896639964164,-32.905864876909845,-22.984346434752098,-23.72213682847629,-28.387435451378817,-22.927796514411384,-29.07905110696774
-8.82234483609866,-11.109729173779378,-18.30844782945251,-7.858358285551494,-14.328709404316296,-8.971929589946969,-18.89872797339192,-9.187654360958332,-14.988318786585104,-10.65134496851227,-12.067823431587987,-13.89652454918442,-5.350277418030232,-3.230108827587051
-0.08002638229439984,12.239564722152359,-4.2258716822879245,0.5321723762360127,5.533535132019043,9.677276970577276,0.1167920626298452,-3.493917190089256,0.8982511635098973,4.041214267724899,6.332626769082984,7.389535332400862,8.42750830794372,-0.7399769872113167
-0.7845868940075622,-7.115157072950092,-2.2158684440364436,4.127702740524748,-6.314742871440825,-12.144551978498985,-16.256128221233077,-7.179827551077437,-8.689586724769356,-4.024438235882798,-4.883202221180979,-16.2002048089206,-7.309128738901714,-1.5664322901767163
-12.777254524646171,-8.56952074568184,-13.757264915696439,-13.82080676672686,-21.530189976658868,-21.44179280313822,-17.15092451708134,-16.657698226187296,-17.308960862831086,-18.84676957262557,-14.44571050179998,-22.50024435708665,-28.711695327283568,-18.135493320233262
-24.756227578124495,-16.55866834524298,-16.639182728551035,-19.12314469930012,-14.112751727666662,-3.0277066464887916,-10.173448263168682,-10.4403980321452,-8.622211046494687,-8.47627690281599,-19.930731048251218,-19.401404205025365,-7.893971300465163,-13.883586048702679
11.44939355742093,13.964411115512041,9.484485819456452,6.199390683567525,2.7202586140389613,4.828423555970173,10.975505078979477,8.911049464509786,3.4361338936059997,12.836180884326502,11.26929231799073,0.5356711416816253,5.74818018039938,5.503605302133429
35.048367218928824,29.621550832384077,37.10730439749316,40.69417902616899,43.994991403514774,48.49272600846919,42.59128357821078,37.67956287742418,39.566002062205065,35.73297405713708,38.68595562415392,36.275897643816535,44.41905780897278,39.61764327790058
47.24596241918098,45.28909904280476,54.129539715859,43.769963871962034,43.8869553668437,55.82587508228719,51.01294032519742,50.71891386065202,52.452188741883575,41.63518267863374,45.747422531059655,41.22017085030285,54.202331714966974,41.601844263179956
17.375450533219613,32.414451976076315,29.107820202326373,26.08011668993921,33.18416249978711,28.41186404002284,22.507440435381262,26.996415656587324,24.495185316937665,32.75468979053495,25.853966806700264,27.173279574073188,24.54435399698449,24.628319284709853
-11.528532178425793,-16.63612338446419,-20.32775330548462,-19.268587947429246,-9.798745198528025,-18.293984632797468,-22.406956930759137,-17.623442039362324,-14.24963532671019,-25.659168028482984,-24.46645888773427,-15.681013516683926,-8.268877100373569,-23.98352665048831
-56.08790107391385,-50.68173348934501,-56.65202455467675,-51.44334360032154,-54.49572040874429,-58.61889840865398,-52.56467285416691,-46.8740041622239,-49.409590609867024,-45.96428780983963,-46.74733978761738,-52.47803141016341,-64.82739289678551,-48.351175882422176
-65.40804698038515,-53.48432090444098,-57.012530144064364,-53.69953846682361,-54.6010799836506,-56.5327591513196,-57.285236744634936,-53.61219795037343,-55.65788841395819,-55.28495181364409,-62.21625690850983,-58.546070307848716,-51.18636406481756,-55.056109491553826
-29.952158414064726,-25.12671314781453,-25.339374130398564,-13.48944699816425,-21.092441287531717,-20.62971240623914,-26.04732079717288,-31.8454096695268,-26.580103979137903,-32.56635969313703,-28.008564793594054,-8.980268476330945,-22.690855319381974,-21.086795902007864
6.590729856710539,16.74131649352371,22.099686359530097,18.778246126543714,24.066488915463516,13.749929308739327,23.220213268179506,24.371920000529247,16.2195798834169,12.377675543573062,12.883943234539466,21.984904447576575,13.939967752281447,12.298628226049942
44.307113810659345,39.54809140746063,40.337828625431484,38.37418313817665,46.28515403639949,50.63930041524176,31.660870225066176,41.99766986000441,49.99912229343203,43.50757531366321,38.81662971501279,37.654640316989216,47.33692655918318,36.61225755094575
35.5790560841767,25.743416117522536,29.22515672050391,34.97686664336479,32.47678792497884,38.145626255481474,35.293368323395484,34.04697171875284,35.498117460103856,28.007935883345326,37.940754767567455,28.671203180554198,22.8871055358476,21.96129088876859
2.485742442801893,8.34849721728388,11.559655424083246,4.468723363876677,5.74206512704229,17.417989982388814,6.172111642459919,6.953066292382417,9.788840237357258,-2.058982371756784,3.572532688019739,12.023966351527694,8.962582161727067,12.920846800041467
-3.6953062416440465,-10.273873647361603,-6.902265433966825,-8.81021297183678,1.8095109977278625,-1.9876298627581175,3.0968749139683496,2.336859532280201,-5.290403601379057,-2.4075415684145423,-2.860042022114511,-1.4476804427249705,0.5443771389029965,-9.454622909671992
-1.8336802304210815,2.3567208238352535,-6.422705545989379,-8.958786495285835,0.3224977780496596,-11.659177942316973,-8.562676476298876,-10.873165881530191,-8.052437733163936,-1.3302341707339917,-6.830370669240634,-2.3148681705258314,-0.8662776538385177,-4.704370865448985
8.912956890118938,2.014194909248424,5.021424156948957,9.487940309409709,4.243631727156448,1.7059985893883836,4.436990252342493,9.378477174112534,10.098571859999627,6.765362872265034,-3.6858645451454244,4.840689550843995,6.893302696417762,-1.9635660079555084
8.370911594350993,-0.17359684494394756,11.288670649082825,1.4752298091074891,11.550193336560845,-5.242986022265729,16.601941289461625,9.167079272394588,8.025993571965511,4.718596950430839,-1.2045526278493481,3.9968260744102633,4.476925059423171,9.380761171588901
-15.433223568624443,-4.363365001041371,-7.53123986217591,-9.454978813790653,-7.573078922697479,-1.753848368092191,-15.673331827737698,-14.267920843899237,-9.871675286985527,-12.834630907479516,-17.10487269311562,-12.371153518120993,-12.653178670885866,-19.544956787071953
-30.957436392462505,-34.00753563802046,-32.48320257729087,-29.874079935020056,-35.086523016292325,-25.680190308135437,-28.582336413843024,-34.51584191507456,-23.953147441377972,-33.92131169142476,-30.670407381088538,-38.14128642211478,-36.9641993681208,-35.760877839020225
-34.54519594391603,-35.40870525474703,-46.424650809578345,-38.538209961128864,-34.754974930494015,-41.10780786075216,-32.25855004888932,-43.01647695435577,-31.133830191478367,-42.218728311793214,-38.67851969518342,-41.91849223904473,-36.65870787749344,-40.45060066940274
-11.958397410664467,-13.369614125829536,-14.98208614023575,-17.919923931730864,-22.419175823816786,-10.753905098610336,-16.63698435816322,-20.908424939306563,-14.984729848244248,-8.570252911461033,-10.166919525757521,-20.05233633984826,-21.494966299539477,-14.625779968529958
25.25492958853037,30.252238282570953,29.833353900542463,28.202731860835637,28.695734719577356,33.99959577593546,31.571872650130427,21.104370813240156,18.055360724802114,21.076650837586563,19.453457778032472,26.73340646023784,35.747940369771,27.594588007684173
54.15025802233094,61.16811384524097,59.78928384650221,59.46340828272689,53.121890187709916,63.821232272953644,52.30588102683477,55.38391151632828,56.68946033534866,55.10195043783886,56.76952763042691,55.22375990816677,57.37329897780382,45.0451368791077
47.30965826253532,53.74776154751047,47.141355656926244,54.20458905770634,41.35852513773622,49.23456865181515,48.80471150839155,47.12262650987013,49.73438540246692,47.12479117099504,51.3371276776964,50.05785002233674,47.577022884016465,51.595151183421464
14.0541578639434,13.646981046877679,18.031444508444764,15.600344998783335,17.292265891916756,19.37492142271306,9.947173625786466,15.688137153429837,16.039137618674644,16.532724455851046,9.835775614508815,15.007880207557978,16.961184184290005,16.404714285268682
-30.054986711051626,-33.23969793511664,-35.601096860751966,-26.868406712898874,-31.238897851585744,-23.603545365509113,-22.253719859312135,-22.933505500944392,-22.903382184889026,-31.546101429761357,-40.294133436132824,-37.81257233045747,-30.862565922480837,-32.80761457069306
-50.174148823103366,-47.654012021523066,-48.01738772235629,-46.603878463134976,-51.50108898340325,-43.40633336268577,-51.11958670239213,-49.09432624683814,-45.25631482266133,-40.51080602686502,-46.08537928653905,-44.39919027798167,-39.10393921832456,-52.61782447584936
-36.03494286943586,-41.23017895646278,-44.245867517676345,-39.744107900029135,-39.95036229566835,-45.95981098867675,-37.66187642969115,-42.387131040759535,-40.345880827222175,-36.47984397518832,-38.523949668942095,-38.47416438775512,-33.660584598979796,-32.48731320440446
-6.545336547638863,0.24213658000790161,-2.206691495543022,-15.355156600363834,-1.940783767921892,-5.894770250067348,-8.242712500446663,-7.332108453014729,-7.703338278192411,-11.166167797896271,-7.747921300548154,-3.2216095697934772,-7.792466303541802,-13.553889483667918
14.393709185977205,9.330177290728763,18.415055723300117,12.060165268404553,9.328425847477192,23.11288366312955,7.638353274515286,14.827536846568984,15.623996568565437,22.915462976920526,10.043022094471606,24.27583082709365,19.111602924359993,17.860996176845756
7.708836013740536,12.00535117819758,14.644651762251659,13.710225350210255,17.94202281016058,16.28626437092156,15.775670144043039,16.37702414578765,14.069806901493521,7.120989376374416,16.019211058416417,19.990205548771904,17.223141971902507,15.974432219527584
4.983833695316738,1.284325242565485,6.075748499976305,0.7917678969016952,7.386430267862893,-0.043127561714678464,10.533031286485143,7.567458921702336,10.491368575303396,-1.9500165261818525,5.580237389276597,2.6508469478244203,-2.4758912146563894,6.880350217015937
6.255451186165528,4.071255428887845,-11.352046135199853,1.6707040397374082,-0.7510472010137181,2.660970243032625,-2.0496946650661467,-4.809892287544025,-6.533338079275919,4.252522594026443,1.637338990284622,-7.107720903338498,-6.26992589389463,-4.531821443458161
19.561984946830005,18.501595915887943,10.561085020564715,2.6505989551539564,13.806572895136153,13.884620769628867,6.967066203370344,1.4581182859260151,2.3498761941541284,1.8456574661651697,8.465428476820712,15.757586299826537,11.790298170973578,5.6507358487952555
19.651527958844024,21.16672478546525,22.85957654124964,22.38493037255656,30.895505300679638,22.906730742605397,26.51128977573831,26.140840954106483,29.529593201307556,29.65297635389984,21.568789763427567,24.132779872113687,23.298560695243278,23.103166166333647
29.73866712937543,31.993508514614355,21.064227373315656,22.020412664756485,34.59541317518294,35.761332698791996,23.452573884161563,25.010437609884878,27.425943796010003,36.62220965104822,14.19116762902744,30.550269783966893,34.627734509400675,31.75847789822642
3.510456886746207,-1.0021884552314315,10.358322317254792,1.2564518777933613,4.170227147396468,5.516382732005566,11.133336374488229,11.830057092975693,-0.016215967765162986,1.0650313695167073,4.937531884230327,-0.7010378740483745,10.75814194729734,1.9016418521661667
-36.15222963289436,-30.9578810724754,-39.08841460953044,-29.536200240336427,-29.16481168580211,-30.894569392579744,-30.205320362388413,-34.670695324041404,-37.534799967960616,-36.98182941814198,-33.71469793519568,-33.80695760758479,-31.950000431642724,-21.464651641560145
-59.402089033751125,-49.719760731161436,-47.80715883906849,-51.103539255156235,-54.56617692223998,-49.14012109516736,-45.226902533426355,-49.29824505414109,-53.52276802352878,-46.441127813574376,-57.06803205737517,-56.86411712002756,-55.41460285660048,-56.359415186981025
-48.33580911935746,-45.821516588131,-36.51461544982754,-44.82129129666186,-50.49806836460498,-44.32635404682146,-47.93902484669871,-46.280828740949914,-51.97981216296476,-48.738684992520774,-41.57660152869341,-41.48583287823448,-44.10862147200183,-39.32857048561836
-0.7996759547982224,-0.6163337686218568,-5.159097626289843,-2.4967851885454566,3.3627383403519113,-0.3575434467618228,-6.632950851443667,-0.5294397931235562,-1.8015607056475766,-17.624937360333863,-5.4766200154200195,-6.271528151528964,1.7511089925324814,-1.5205576878247058
36.693233726704506,49.77132491107654,48.55191987841904,38.33901457070118,38.40369492883995,33.15585470933631,47.874862812896644,29.656077207975024,38.37947922705295,43.06441915353973,40.40163132866016,30.033624149548643,36.94451143909068,37.98929387211122
58.19558665555877,59.64356441056468,62.939023908945785,57.51833971277071,54.479651457129926,58.48624171755483,51.373506693026314,60.03900556412512,55.14495849415437,57.836483108622275,59.93864148852474,51.61295527102386,66.38231752468731,56.23022951363321
33.470277051279695,27.80373816941728,32.92414970287086,33.293104185129295,37.17185700002986,35.66410630624392,41.69002676959197,43.27449921976882,34.02098974613992,35.82568639734584,36.45012079986217,39.09288360614537,38.76389747945805,37.511049140747275
11.697700201942357,-1.6471012096241249,1.34174250277525,-7.218847364113654,5.106498233260526,10.341747019225874,-5.408552818265267,3.8578363818018655,-2.722169051531783,8.760797389729493,2.132937586158274,2.21124285938056,-0.44195292423609134,1.892558410666272
-23.80751527593287,-22.3818156672167,-25.398109422940827,-18.953175800349836,-26.214013687829144,-27.115025572336954,-22.75429323910573,-25.13522119359742,-24.57091019138816,-22.71354982490991,-30.335881678059145,-25.874417528524596,-25.87243129074105,-11.562389674338636
-21.9291295773864,-23.313066154194697,-22.076557703634315,-26.987513118584797,-26.905225503366612,-23.00808182431776,-31.853237613969487,-21.38678558957262,-39.03449959954381,-20.93533343881797,-30.84015029380725,-26.04789984909228,-33.4941610192915,-23.030020687379057
-13.987858352762268,-5.77673147259625,-16.163647198083996,-12.299310992657942,-13.51212019947805,-10.849055276842172,-3.0219769311308013,-18.599325185514747,-11.205268710426969,-16.6934864527208,-15.829202765486624,-11.805645145555962,-16.149040093055987,-7.725118155606847
2.4748135179859583,-7.9588122330714945,5.382852712920183,3.8024039003361336,-1.0728283387961173,2.2896248177280216,0.13016183530638475,0.009632249958766353,1.5543100840893065,-1.4964854473852183,-0.5297416199896603,2.120847094381201,3.6363271529466714,-0.20817618790840625
0.35049966696936075,-11.552500418730354,5.284294824761547,3.8989067627193466,8.785931705709645,-14.845837539282488,7.133580208828359,-1.4497013681338875,-4.056930291403423,-11.815131131816848,11.672656292114914,-5.871307237983097,-10.432863251544834,-2.1812851955844614
-7.465254640997063,-8.548335699341461,-9.604042612977299,-17.831455364203766,-16.279297483245767,-16.972870275151543,-21.07517361360242,-5.2572019057655,-6.93088900655281,-11.80991347921911,-20.732570935881313,-5.226154483973293,-12.466780167160437,-16.762817803051295
-13.205713876211895,-16.00050291481307,-20.592333597116152,-21.906110854717873,-12.215523641514949,-21.069769049103034,-15.846706016435803,-23.181582669262692,-20.526068804653345,-15.891232272098444,-18.94047767886842,-25.90959105602301,-17.090643003984557,-15.266901300740189
1.5730159754522939,7.708492412479342,-2.929639124576295,0.49558884672307135,4.320029008786744,6.212349994286829,-2.6746589659911564,2.475571435947222,5.597941875408302,-1.4950747168049308,5.684036709752117,5.305881446658287,6.792236239056364,9.675920673240597
31.87255803862151,28.073069968418316,29.982699668112538,32.05020244188868,33.772567649658704,40.41308572265582,30.979678787939616,34.731862537221495,41.5353627262821,35.761140858531846,34.76298176920384,31.110785914178223,36.246418768513465,26.95435059053309
48.425820437008475,52.7615920678381,41.104019291400164,45.39388412168914,47.355120014857015,48.67084640104393,48.61874210828199,49.1343002270925,48.59304233202071,43.957586164303066,50.72675213156698,45.39859443987951,50.39520243152175,38.77831987544053
35.99554871672437,30.87381400160595,33.38470103312871,35.53658207425437,24.794936712783727,35.91630979944717,26.404068349134747,37.737604523534046,36.356491428166954,32.11989107339601,45.85820858933257,28.962982725815326,36.893808702025936,34.60015512787547
-4.909479732811761,-6.369883961744753,-9.989500551815677,-7.828389954118558,-14.87688762528035,-10.132694913868221,-5.681750776293505,-12.809504914061316,-20.1467914569251,-9.628007807404707,-6.932977781421468,-4.101732776449137,-9.247637384251753,-4.10201975016881
-54.37901603213531,-49.27794486809699,-42.839081614906235,-51.602480509687915,-55.97392361010521,-45.35223964684769,-40.50814461685024,-50.605733252422525,-48.128236106165815,-47.29103829558354,-43.850616742680266,-38.14931194901857,-37.27375393853271,-44.00121072707621
-49.496423783990465,-53.36717933526605,-60.62148972135365,-61.02076986069006,-53.4865305887644,-55.37678732451543,-59.453718675584156,-52.381471686377374,-47.58564085646132,-50.9058382150096,-54.68523781836492,-55.39015122638547,-63.47213864451005,-61.87783221420996
-22.699609970364136,-35.374681665711,-32.34655524244901,-37.45265221792137,-35.350583279034495,-32.48870238198657,-47.681552267696674,-25.36003041012897,-33.24569191789142,-20.711525401391707,-33.94266810116842,-25.20784503091545,-34.479301987674006,-28.529683634765732
5.433931019482021,10.90130602414156,1.2932078334903885,13.468421240824545,5.894574414514675,5.113587199798298,6.578027642372048,10.395505622988663,1.0482133049776667,13.604724718677934,15.898085472588457,9.714198814043597,16.95087954285666,6.1610973483054625
26.126854136937904,41.00636483455779,35.26617472911474,34.77248209104481,43.78114042178315,39.110612449001664,36.63873392352765,42.302018150138395,35.26438266311941,40.19381659020987,34.62250249647778,34.9162556316346,35.63389034601518,36.83674223628955
36.77556407109326,36.073983364551125,36.99601110842041,35.48619827851703,39.1916149424558,51.83399722227813,34.84995353644711,29.36793447590447,34.60985098584034,29.270467606762057,24.179715423058337,34.84159699972556,39.881099070502174,44.82990954430041
10.458198792742444,16.11421197505126,22.542344725946478,16.731419287646016,20.013559110378928,22.97972642253119,11.539997881599248,16.08347494542036,12.998996618340076,21.62993771636228,20.15100381007837,17.00753719622496,15.942148124018944,7.566182718004663
-5.748457600726828,-0.5604357565808757,-16.79834202131839,0.8306281933248769,-13.932105317353184,-5.610076451691745,-13.548952547707465,-0.9625910881244595,-0.19886503003932,-6.484716636456003,-6.1582842141072405,-2.765249244247111,-6.099834111428349,-16.48139641270774
-4.281847201836735,-9.930771694891027,-7.987595637340707,-6.5009691950767525,-16.761292488937222,0.44391060286517536,-7.470942618174956,-3.0640742460266335,0.022744748487427913,0.4224799271077053,1.5821360122759422,5.694814457350903,-16.57986765496274,-13.790250802850425
-1.9332368610914372,7.612887810475062,4.93324013096068,-5.753465623309248,8.0149390821962,3.9353540954790214,1.3857738624876679,1.57854469628249,0.5372192196478283,6.220036858005608,6.0848361077363755,7.335501322305798,-1.8444446942526094,12.052846421421828
5.627796591792394,9.95202663191592,7.729732342644393,-0.6223233133819637,6.139703995086319,0.5192166494260997,9.664347698835154,3.1994433832397045,9.121406392627456,15.391601838848171,3.0367144366251138,5.634044943433484,14.274851360130134,2.2746856945366654
-7.126163956564541,-6.977533117754388,-4.989144609053271,-13.37783882884844,-4.152477360535222,-7.209729040948147,-9.790465600410275,-5.483341833299917,-2.381189675155883,-2.2671193862560344,-8.65378790889932,-9.10648797822304,-17.780061187970645,-6.9595085292991214
-31.580253784506155,-30.363603169665335,-26.289527421630368,-32.297035501764036,-26.46566237472625,-31.88573843358436,-29.24587253257276,-28.628867985403552,-37.72593334226404,-23.92162930705295,-29.608541190813575,-34.90054205342582,-30.211654358541637,-30.142623032943018
-38.06629759038835,-40.064497224318785,-38.055411724589526,-31.515597959628828,-37.91200862482025,-34.59199261736003,-42.907847454050916,-42.39297349085765,-48.576534635356396,-48.93505851850109,-38.16023421880431,-37.70402166450164,-31.13386030274706,-43.85051137681276
-22.46216428887527,-23.22024307140874,-28.35314825688947,-24.807558307788536,-19.602094587137326,-24.81375439653884,-22.574284250128116,-21.353484415666486,-18.567318259297878,-21.182040156483563,-22.57446568040813,-25.646620889347247,-23.886453530221054,-10.174672051677955
14.43108103651603,21.75291277898707,24.819004830220145,16.894320559525994,21.650506517590134,13.125435386715417,21.154253619496608,23.918856901817797,17.81976198457661,24.31710109836936,11.529459076283679,11.148163131129769,18.84100140634615,15.705045939050784
53.07703431868843,50.275986347670056,50.92665601306594,47.401037632797305,52.76836845967023,44.84501228216344,56.74096886999204,46.22949598608029,51.76855708488006,55.30084600377141,43.89063465751366,56.95938197602582,56.19776498215271,48.91035682746766
57.878779645163036,58.33597510646213,53.43709898456939,57.694816094790944,51.72781838055583,59.189436165208555,62.035203034195234,57.96302479615222,50.217368448437,47.00517887240263,54.789078242394666,45.1692558996524,53.10883355015811,49.39835237243076
19.230108128730723,16.891441969997416,17.12517972044204,22.3377834698204,17.95807017344565,20.04785406142617,25.64953051164418,22.608067677779367,25.30542566770271,19.58614885031613,28.711311979536035,19.461813657131437,22.8648281183938,25.484306866036015
-20.023353324609438,-21.113597616565738,-30.025853082868718,-22.916907460954995,-16.641341312738064,-16.05307454062247,-14.568914253110346,-18.546167844869572,-23.08244591932219,-23.909956000496344,-28.041997122180902,-18.178492209837774,-21.148721413882907,-24.011348583162853
-53.816425551711966,-55.89356245501229,-41.68059506006449,-50.5583760482553,-52.53053911860347,-46.59983820980187,-50.40685611565283,-42.753611195655395,-46.02769477892762,-39.18297292875006,-57.98181741547998,-38.04368272789325,-48.09205656767752,-50.976179436711355
-46.13719481819557,-40.97398841270587,-37.29488849459619,-37.66972536992859,-44.449280555331626,-44.407661454555765,-42.72383946074588,-43.049129892458296,-43.782273324474296,-41.26615839718,-35.57261964488385,-38.49084219753818,-35.54379693137833,-41.7154726396426
-7.558336047015222,-10.95045062259462,-9.244050635255082,-8.325959596754688,-18.475638365063567,6.700219834308326,-14.6500224489806,-12.404959968213175,-10.294945668912632,-15.398305268072377,-5.390381875842103,-21.326806048206755,-9.300576081957917,-16.870162036447404
7.88570100584682,12.419050577905804,8.75229161516277,11.722645993441919,13.595687618999506,7.910429445792186,14.390561171973445,6.6135672996328605,11.191376639847391,9.245485223671173,8.06367739261922,16.644156181354838,10.568728901785645,11.591746091720024
24.909093522963737,12.752349598717567,22.74796625393366,9.133107309579001,13.996134575861243,14.941773081881372,20.455528718925102,20.281989363939697,20.828056279465123,13.626767768831847,14.439029300016802,2.738030484961806,23.366214355693987,22.65603436498612
1.7898146904755627,0.5614674229798311,3.698995853596468,13.22833119380871,15.35895115283526,10.054093189751782,14.40186852811091,8.119997323497344,10.41467870643722,1.705260236530079,3.52360071801103,6.407274423011734,12.704957233165775,6.923618244406349
9.477940694918182,-4.183691533557604,-6.5438568002794995,1.4520429256229876,0.25809678228633093,4.828774406462499,4.294838865518531,4.523397214060295,-9.674621243438594,4.1921963649522676,-3.1989048696805336,11.127423272919511,2.6869936962044854,-10.162625631572132
7.871926243044053,6.55967420568249,3.6157858894331705,5.402412257258146,5.920063279522285,7.477456646764256,8.704404434487031,4.874678726251503,1.148115949788032,6.74182388098884,10.854145783207578,8.293704935917795,2.223728221320549,9.047849735848581
20.02220337583275,26.485810224529903,12.678954680146317,27.290614968623892,22.252983089387925,23.800389970617264,23.854155012090445,22.08626804143952,20.47872564149025,21.91724031718949,24.49574046157501,26.247445364905232,22.013899466740448,23.274441288395792
41.00449083418322,24.08788552662154,27.50791613338411,22.482021727951725,29.461965488575824,35.05910363660603,25.143640757488228,30.92218199962035,41.00856877216184,27.54830767847042,33.76812184498748,32.435800902769294,26.786439832437637,29.244987446584
13.699968927333423,6.051748776934991,8.889978302325126,15.24465830194783,13.571884099613191,8.746694746027362,-1.2093237980723792,5.972423396617071,12.308575396401165,13.10221525826266,7.618226864771601,16.174232161065227,12.409390076921966,9.187955040638139
-28.48573463208819,-24.490276506086392,-20.36250968162962,-26.053671378044008,-25.1487674298037,-30.888308808195262,-19.498860486949578,-23.361809529594467,-26.93280154762051,-26.55543192608275,-20.301169301719426,-25.012467021739266,-18.91135346490557,-23.37854850364644
-61.64810021807426,-56.319922130411214,-58.17212162677616,-53.250786403328576,-55.85710319740057,-51.40012242902675,-46.53368792534855,-48.70296474377493,-53.87779785559233,-50.153979743198235,-54.51264979209861,-55.39111378003255,-60.143837238448874,-53.94803612090588
-50.86508375879742,-46.640876821647375,-49.97266084165833,-54.214960999846475,-46.073424570843784,-56.875274231452565,-55.682433140372225,-54.97642671406936,-39.69056703712522,-36.942201145416334,-51.12607373697559,-45.12789342457565,-46.17599345111566,-53.062057453096884
-5.132050788047751,-7.823309870780497,-8.685093362626196,-13.60850487547919,-10.654743988524809,-10.823310501755063,-16.44319032709358,-12.020980036526947,-15.31277253354658,-12.16019367642678,-10.834570568006086,-11.200709015302657,-11.007258582328872,-12.753294946224653
33.5777416415859,33.37447156715366,30.448826572884492,32.30940921491974,28.992950584974906,30.691024539658965,34.35061140104376,34.279118889324806,26.765655374960375,29.20865785112117,38.73135076072492,30.576736724191857,41.20446475203227,32.039851996489055
55.1601549402967,59.70460878058806,50.99497268612942,53.054383326479815,53.40192601073058,67.47607257005585,55.33382170291935,45.79213500704292,58.25605187928905,58.73834797237049,48.40213969744906,60.960533481607364,70.92797098521643,52.38532808052651
43.064298784295794,49.97861649807617,40.45960871066805,41.89857011500146,41.589460634441046,49.534721907947606,47.725878781002,38.00539290483401,49.932736864438596,47.50459620139303,44.35925200713371,45.96346036438964,36.386646880803326,43.05110586988266
4.002972051510711,0.1016471112656614,7.8441670662028296,4.8133278256125385,1.2163903333672481,4.1613461281900275,10.170223418821546,8.556421593447615,12.078632812735018,0.42366135170126906,7.378978079616447,2.2765063508501333,10.905918649811479,9.076437396360253
-17.825982226558395,-28.17179536775229,-21.575396558641557,-19.64711204410948,-16.79320633802819,-22.985116391891324,-13.651063251959151,-34.42215025939496,-25.271562063533935,-17.623177505640214,-29.101016733479774,-20.946178816006448,-16.04352729842195,-20.577582961795695
-30.051159023631087,-23.001696853259837,-25.819849859219868,-31.908644442819398,-30.169800207545627,-20.755298106014564,-22.100276801778328,-41.986354184970544,-39.43981169468335,-28.149906297793358,-31.31745572183076,-29.659044077085593,-29.310566130108587,-22.125296402999382
-17.646023679379404,-12.637963421905324,-14.101175139105736,-19.308091926921435,-11.313190997346844,-15.446522254066506,-19.706456683611904,-19.100874976005194,-15.526686720862715,-13.864721598691126,-14.415840036384031,-11.280576715947245,-18.708479358617602,-16.338585716393368
-1.595931433524919,-9.350487480922837,-5.756916490555507,-4.286053066241064,4.358699753232454,-1.3274930101512523,-7.456428553724386,-12.52873866979556,-12.935907457700349,-6.328367584744863,-3.819129967812851,-0.49116180089881284,-3.8927914524685714,-4.999480059757664
-5.1511044039487395,2.243605642365355,-4.243242079393423,3.796475617822459,3.085072780245846,1.7105036249554901,-1.0094765836271526,-3.1589536944432877,5.099429027971126,2.679557787566151,-1.9578555118383238,4.403603651949023,-3.2642629301407355,-2.1774575948677644
-33.24308446075497,-19.823066478535168,-13.659910991220015,-17.49977504296783,-8.887406253682807,-8.821686545937965,-11.176477742931809,-7.197014281357036,-5.1543291375510165,-18.0472196944293,-18.475273973036852,-16.607448704846952,-9.385588342184544,-18.952522599562577
-9.182847469341807,-26.39743214957558,-9.618626314430868,-17.090487155506143,-17.5040930844491,-18.143954937093543,-2.14622284065808,-19.52308693121264,-15.662575889870599,-23.75183679262104,-10.619375038176964,-25.096924395570586,-19.974782381059775,-23.660910115474664
-5.907954524532966,-8.701280083286282,-4.03769610885338,-5.809921659935781,-5.666515671017563,2.7269092884632284,-12.04384628217069,2.318090960557595,0.7865491863863765,3.9062356528267044,-14.284275420403535,11.993963833248795,-2.2183757664150368,-0.7485006222897634
18.741010391280803,24.15538594309533,21.11083185598482,26.799089811372614,24.76231407089437,34.74469176146255,19.912015540385084,26.78650774356864,29.554044408712066,23.7234168958397,15.009105214285752,36.16303544076027,28.432336179867587,24.811199484504904
46.43258720764638,47.43376993178016,54.303870443529505,52.572312229947656,40.271438722053645,55.051515688542516,47.748794754555334,43.537616488906025,49.985113388403775,53.90745906245234,58.24920831292074,49.701945592690485,52.36968168945604,55.493884096442116
33.56814168519068,39.85284578098374,30.237803671226466,47.04528189163496,32.95750243083215,39.417870652638264,37.045909160386685,34.2808387412158,42.47281129998221,39.69452717229163,34.035674742422884,49.224689073916686,38.659100922323205,39.064207575615285
1.775272983873569,5.235254129195076,-2.719997535496322,1.8491814500310861,7.495744747789882,-0.09294792007758806,-3.5137017230971495,1.836006783545336,-3.5812143309609232,2.151971823400085,3.321869413422367,-1.240662061714764,9.641577021942863,-4.170021555538597
-50.70158860593814,-39.86386629632528,-38.61728822210698,-37.447800972834074,-45.788924256352345,-44.097572674833046,-45.68470508676829,-37.196622158857,-36.281146784591165,-38.284031416471805,-37.40056543393336,-45.68849639488007,-45.11848827786648,-42.29483745934658
-65.11290766258169,-51.727156339928854,-65.61328618534858,-58.58086072814389,-63.71308515714466,-57.54031998818934,-61.29809666327038,-65.54150645157326,-62.70271629358075,-59.2708765494723,-62.40265289807352,-69.09423806558345,-63.5905006629871,-62.35339615085472
-42.99165219449071,-30.125414484356817,-36.28312111658391,-43.17348040201609,-35.722420822790546,-43.380679353008006,-44.09978951627669,-33.80659086887262,-36.200098722173,-39.19566924136503,-37.198992423553676,-33.324542986216116,-34.02357388680912,-34.19679731703949
5.623756629274231,2.5051713909511553,7.209479105925795,2.434296723108026,1.7801081729406965,-4.223487920047147,-3.439054350900232,5.865119228334903,-7.639254439961833,-7.544576978781135,2.3432540916457687,0.26583442734873497,6.360728650118324,7.11104861881931
32.654017527992586,36.72198471216144,37.39935191083599,31.799198983532243,46.1155915347515,39.80756930132947,38.13213073823943,35.53209177043822,29.720685565528704,31.83022572796703,23.610366010508045,32.20807293927797,32.75845551911717,34.57906397464403
35.41877806531283,40.28120044659767,43.77290866103394,32.37371622255303,46.8863865504771,41.3786022858028,34.83476035212618,49.97263950515546,39.01974923964618,36.85194797108681,33.737421110427725,35.68451641517548,37.534559251120946,35.06860611708878
17.421618962559403,12.970787068652236,23.24420987660174,23.011812224910148,19.281146607518078,26.011947178758064,12.764901565939248,12.213900832671392,25.15397200988462,19.485117951822662,17.35969839109218,20.108719626475743,24.29574830813989,14.213958491063423
0.38644901868611825,-0.8352138946603755,-1.4222202505422499,3.3253070860353295,-0.7069404648982318,-0.993092499228426,-3.0386061834001996,-1.0609607566431578,1.9827584074899662,-6.255937208771309,-0.12636926191945652,-0.7556761434445554,-3.2351659271549584,-0.42901825638334223
-4.92548598383034,-9.861166364533325,-14.891404556426615,-1.8378060861798469,-11.49903370129643,-7.330437056615201,-14.988902157004619,-10.188428644831724,-9.241504908597744,-7.232602222286956,-2.1855378764826616,-5.595400967077842,-12.0444607047625,-8.00804416735622
4.833055604735611,-4.730893469506615,5.78468574076172,0.056680468470226675,11.505928151680378,3.4271922472410283,7.131456671315817,6.327120328061753,3.896944519888085,3.1672853006767827,0.4467405376344358,-0.0058125015044012684,8.303706181611583,4.4617157517125765
7.283762019270347,10.095728195263021,-4.0505426712567925,2.3423828340397455,-3.4448012955209073,16.08980711530905,-4.997374224091235,15.227851246248822,5.871395114029189,10.11352561810838,2.4907215162865413,5.54453069557339,-2.7737511645092106,3.8794782350912556
-2.8992871684567603,-3.763109282483999,-3.004266239468023,2.2539412144408377,-7.241651066320437,-0.5502790006278122,4.806968371416813,4.591290007172778,-2.2178170556123495,8.806218508292167,-11.552990168554532,-0.04263121173533824,-4.208287884280472,-10.553159472230664
-29.933353344179125,-23.43577074345644,-23.602356277236634,-32.000467595363894,-29.155709806928744,-26.455745756357967,-23.50879481794514,-25.573279337738423,-20.362953763484956,-25.414881461177217,-25.91551083454954,-34.77975839162253,-23.121094200378753,-28.45169556561468
-37.67511811820649,-42.07348642689979,-42.1910816768088,-38.68956634148862,-34.33984860816524,-39.40186028978316,-43.12503200240984,-36.283172823258795,-43.05239842022962,-43.70443077965973,-38.183702175142564,-41.0027272140844,-45.91326150421072,-37.44886663461553
-23.597424592928974,-30.01732696210106,-26.450216437179517,-36.166781680993346,-30.522798854248542,-24.36973634464951,-25.534797322587018,-32.98146991758662,-30.40024436685455,-32.343515852853,-12.306914060850863,-25.93867413196305,-25.352763329889818,-29.23204054845439
8.8284772554605,16.225338033246814,13.106506861720039,7.992851650172945,0.5052539833403813,15.916224062548494,6.627699761246035,10.400951114733147,14.145791333930898,9.310786988972191,8.344244479483955,12.842823835434075,13.013503492299108,17.266489015219918
40.7478597274717,43.9524671556699,42.348549338909216,49.55616405285897,49.58731919532399,49.50937885815411,49.15529735059168,46.18138025270246,44.08912146479261,47.399876640095826,57.64938602732694,53.507658624201895,48.83584042545596,43.806546335313364
62.66380554708971,60.174901358733145,54.48025679601808,51.95085420345759,54.106408825330085,62.75510436600295,51.72063374746784,55.225936724700425,44.229383178686476,59.26754567575448,62.67955953135495,64.77791240372451,54.906447121838134,55.548818727254506
25.11673628795681,38.78714153390285,19.0794666353882,34.35498789672575,28.924588772232,35.397725756668244,33.66462976850739,34.70565427718332,29.082247297053243,30.312909327663704,28.87652117419541,31.228021598903297,39.63688898640306,24.709111008562186
-2.0938267755500988,-10.861910334047694,-11.99542770492121,-6.289696404725634,-17.642837616517912,-7.03363809994344,-14.920898488595327,-20.710849890629667,-18.1585915742321,-11.67554133297753,-18.38065599392017,-18.794572048369382,-12.607525676377184,-4.714948958616301
-39.78831698033534,-48.680549954416236,-52.83122451033181,-43.875764211715726,-47.11721982212539,-45.67075720614404,-44.88720707405385,-41.875079311193915,-48.76978419971539,-46.555949888358505,-41.91438043580652,-51.80423114646534,-55.66425021578309,-37.52461407739554
-42.22657600461272,-46.634584002109165,-47.80064150062835,-44.569923588003675,-48.74152620252909,-46.36158267643698,-48.77495176206663,-53.50516081444343,-57.43541756845838,-49.686507753678,-43.497687651907746,-49.216529897301776,-39.73437284401906,-44.83742424544269
-23.89505908037769,-30.123791345272313,-12.768067624381157,-18.640105223616587,-11.278900059258635,-13.246759614282128,-22.020098538229668,-16.806434140906358,-16.1228259091955,-26.746549702458687,-18.715590386358148,-12.477089664429842,-16.624343277689782,-6.090076506872361
3.91378458895304,12.226465361411694,1.997325456291514,13.756826783200239,9.172436492285383,8.578901476842086,7.936396205706041,10.023976343168602,13.523848036028694,6.184395542834697,15.300988387942953,10.48226768612625,16.365043786494088,5.023159150224062
27.64764588415555,22.561974788054787,15.265130041520926,17.77628704536726,23.183929510401583,14.105625674993583,17.291792070314965,21.626837784639708,27.148503673960924,20.18131445217139,12.283836319602266,19.31908848666968,18.025024269036116,6.2442251038125836
5.5356058809527635,13.165948699715905,5.7867076236459205,20.74895506249342,10.852302646204134,1.2776417734525243,15.309455634827799,12.625065795401884,7.7538919503689545,11.496486878391197,19.083799978371598,17.195686460313258,18.571938295578388,12.334745853217393
-15.136013399703847,-0.24849876200143747,-8.802801693041344,-4.930603515807306,1.47243977253585,6.29340599290656,0.7869656741906816,4.284634738270026,6.47378280001357,1.7132371380501001,6.345678058481456,3.13085536769927,4.039745665360814,-0.09488506362669802
1.170974736504018,3.4510055319340096,8.396722014289434,6.439408106114212,2.588265381960027,6.420528892950472,8.91956318326469,0.9742355817388177,14.789792283352988,-0.3416455513620784,0.9732851906745621,8.782966655343955,13.240622897349946,8.616594662760477
17.646307565790114,18.029707724485277,15.37281750542167,20.78640667757199,26.077858887920314,31.083016967324326,20.960653903991826,30.005975647741572,30.790578435241354,27.3506846860938,23.935721215997024,19.500149725165254,16.472209328919252,28.731414800736957
38.682861708096986,30.924106932774375,29.867972331581473,33.03538681587526,31.818578948662136,29.27944857329555,31.900199400996627,42.06703765648089,29.89563898843406,35.371651909792305,26.34296456957529,26.7103017835937,30.32574019915605,29.857756941948082
22.659902454817253,7.613477423604039,13.95175298798074,17.87645010743948,17.63026100486005,19.21335163503521,24.055070746597703,9.119981097294598,15.279691065545826,13.673650816753408,14.124480357503817,20.907603466928887,13.203139654016583,7.616987276556323
-17.234750765897214,-18.86191700312648,-34.70229325175203,-21.26462135888768,-18.024875665752802,-11.276633355507666,-25.93118130572362,-30.03528582457718,-15.82474659488848,-25.34326263813045,-22.0691184179555,-16.923313267944124,-14.504994406567764,-22.109373480452824
-40.86853914975228,-53.409846185251055,-52.923570070540556,-47.022423410063965,-49.45916877136882,-58.79772423518762,-54.41501834120229,-52.226813328347355,-55.01906258202152,-45.53337065259459,-47.26343744192498,-51.55481417008511,-50.170558061016145,-50.639364217962
-51.08730201854018,-58.14515831384335,-51.62006270743583,-56.83078249945949,-51.7354117281896,-52.239329570964486,-54.10283168216908,-49.89103511455376,-43.43362604217705,-36.78599803333297,-47.94293861365332,-51.2920837466977,-48.712358234193935,-51.969085336741635
-21.665726251537702,-16.678927989333605,-18.894641892624772,-13.779720225268743,-22.074028783924273,-13.271758164327323,-24.224696411579817,-24.894973686578197,-21.41530501452132,-25.782796149263497,-24.83634781828912,-29.924871266119396,-20.526611208146715,-21.896733081418205
26.537679040248186,19.798065815658035,23.158533330277493,31.810191076709373,19.227879970163617,25.725590356321476,28.07884625584876,25.913030332622355,34.129588376032885,20.99790959570567,24.7807439371719,29.25262620027174,25.998789979253782,24.452246518033295
53.55132100161526,55.1710059786502,49.36211195557724,45.297956544792356,52.32863885177382,63.570788608418184,53.35909112446017,52.45758902141961,57.12229748974611,44.745507761069234,56.43798698439579,50.4950533129359,60.65805384948163,49.69152537193165
45.18771293996173,43.45656097776369,49.855754190120834,39.51062877680926,49.45385592923482,54.413474706692725,48.03527743031945,49.36893083936198,55.79070102807744,45.93135451986513,51.80552756904252,56.343444574531645,43.43415247750423,47.7010684540353
14.857660302320431,16.278521499570214,22.509005978266586,19.162546199772123,8.894096522806624,6.512222626198168,14.799668166420455,14.677712235750956,6.5719155587807006,8.204374703125234,12.484864720196155,19.044293062464952,7.632447704303759,22.100311089260966
-27.52606495758046,-13.433098139925852,-9.166039882663485,-21.71217009811372,-16.96877651905909,-28.053797973607086,-15.314378011120098,-20.16216528686987,-25.402278826808157,-9.88790853689213,-14.522599895750893,-13.965574426924373,-21.408058219633034,-18.55598597981132
-28.15744414982857,-30.90846218082162,-25.546896553409425,-26.23465725301085,-29.07341593756548,-30.71073400497989,-29.860795274310824,-26.950960567221436,-30.185775615755567,-38.25773801029591,-31.33783790398485,-29.9863537993256,-26.059232560701194,-30.689022856026796
-14.034043942454653,-20.73036471606629,-22.881741389443533,-14.713968438149383,-22.62193065507102,-17.60819096359881,-21.189474076674053,-27.098682768752926,-19.00585483768968,-25.12259790067131,-18.249865717526696,-17.49194268079985,-15.814874673100388,-23.98471479696719
0.27366814432958897,-6.149958340412346,-16.164640674403827,-1.623248789882174,-11.542423778889606,-9.27573494853402,-4.184389425591053,2.2635761048870204,-6.205465705514365,-6.6434035140818,-7.71458434039452,0.05512948605859824,-5.922332701400756,-4.0066210999813805
-0.9802254530851957,3.756895455353413,1.7866362060536196,6.426655097036525,-0.49859643376514473,6.523722388984895,0.6648088153306047,5.580854629176792,2.135466607948809,3.8154671958957467,-2.3321058028053683,-4.491347104861588,2.200258524393434,4.055878402434301
-11.302728103457069,-5.759947896011865,-12.982241033168291,-9.208783006379772,-7.363977940907874,-11.406631349084241,-18.87938415087499,-15.214033960650632,-8.431057399266626,-9.03999031994573,-13.04713059798313,-9.203661631451002,-10.483508587595159,-19.27683463566302
-16.337549031063716,-22.07334293792908,-21.47534699731432,-20.537357662552576,-23.254239073050705,-12.99673630674974,-21.92178837660907,-21.439478718358625,-23.827932799880706,-24.323232405528213,-22.34414240486801,-10.044508414822435,-18.094206470871022,-11.558828744840891
-1.9518860672440912,-1.9467807648407067,-5.07362784929159,-4.64648039274989,-16.525881823546975,-5.509995836358286,-6.017621866014347,-12.825137645667473,-3.5458081518009386,0.6816334431339293,-7.585204916373367,-7.750104502273539,-6.937963297243473,2.513791311134197
23.091912125447084,33.03986050666441,23.596485300666604,25.06529251524514,14.347684522784945,19.826966313677506,19.91653815411124,23.67263987374563,28.19619375187226,21.01069406228387,17.08639104902561,17.878821299021723,25.856985030878803,26.197681527594636
46.31280647608945,49.36428844821343,37.60040461930596,50.38246003705515,41.43738990642821,46.51263814954376,54.53257514995681,43.08673111610732,48.30619256655233,52.80195955839303,38.43452963572192,40.926937367738276,43.16105956164508,36.56842503090317
46.29799549976234,40.990140468559865,36.79226609481934,44.955143380207936,44.12076864851768,54.93836008753312,35.02787778520353,41.62522405616487,45.78336920163263,36.123437323236146,49.510162161334804,41.680967651216385,49.220536412198086,48.50957675874091
0.37631244770300043,9.30865185617198,0.39363871097847003,9.6908841246981,4.368772049350677,21.067430536589374,0.5428142668928491,9.892149012467009,8.328416621866792,12.436904519860885,6.082066524926292,6.247700896860355,9.570415903285985,3.105463582839085
-37.81093063947888,-39.03762919983015,-40.60198933708256,-32.20764391795165,-39.27297578352807,-36.78829668651147,-37.99541770269648,-37.302245524811326,-35.83426680533919,-30.12787614582387,-34.14922731679212,-32.05480267174598,-40.72070952632902,-36.49822830445143
-63.17957987494598,-63.67257597766268,-62.92504566952793,-59.78405877015252,-56.716345940397545,-57.64607523982177,-62.00665669901959,-56.4245181698314,-55.93873158211171,-60.97737135570162,-62.45124456413488,-67.84677532529787,-58.51587796602367,-56.22931739317471
-42.888643484239786,-44.569060392121834,-45.01234127159164,-51.69678534132048,-40.97541767042979,-44.0705033572726,-41.66303023457807,-47.89496582788314,-45.36245427207328,-48.12301854189344,-51.29686457561764,-50.3326344580578,-40.26249057059364,-48.75383989419494
-3.6139293097756795,-0.2518999690479298,-10.66932336503103,-5.837113707005226,-5.265125763681086,-5.640322891759782,-3.310260464038853,-8.016553627440473,2.102004252279623,1.2505535270597852,1.2493826987194838,-11.054583461567278,-5.2447158112912815,-3.464599480713335
31.579265393565617,37.60114208272461,34.161757736881086,27.873772468916673,45.22623097583315,43.22765857886142,34.08743789258524,27.13567978202738,39.5935566954421,32.71875234212243,24.44808621494629,26.39841288784148,37.92767505223236,32.51047625764825
37.04499506443283,36.73345794353478,41.567642019181605,31.452549388831926,40.99557351437815,43.95316583992869,44.659248376294954,44.964108889000784,39.361817462864224,47.64522076461136,47.19883400671792,41.92439385706584,41.44719963401633,40.061331900060836
22.74356645041109,13.354837045467043,29.398381461307125,17.6852302599593,19.019907164216516,23.252269342648738,27.26179985538563,22.63066688549866,16.903179727868306,20.906427237086486,26.120067553649097,28.041747623599914,23.238182186836692,27.04479197580656
1.6801380641110208,5.780036360264026,8.526111754444825,2.9946343233541457,1.0186395674122923,-5.258980373506124,-1.6670802022108973,0.08642680974632755,2.9483113286093863,-0.3922940389786409,-5.079511436254935,-3.0301597619554794,5.583815517470567,-0.9504182239029788
-8.538235971313593,-8.569902090714509,-7.159732766872165,-7.4016410349775885,-13.940301986340327,-2.0970209792307166,-6.468420366736279,-0.04371933709712916,-5.3310019859880695,-19.455457889760464,-5.885746685666417,-8.375730266074763,-5.044680661886199,-0.2159863826937709
4.803307941071575,-10.236050850312106,0.14642841807091195,3.488320611270281,0.704942947910658,8.611431098165104,-4.508157819098925,9.633472847661688,2.4474625768956226,-0.2043067632144347,3.197923791423502,-2.4064839409518433,-5.059189858780793,8.66283980778017
2.7921835307637393,5.553187910824455,5.528216152348596,12.165238562203749,4.8951136127838275,2.7257506220931678,9.450314006326375,9.384406519154359,9.351471936607153,13.303357402514015,7.245665033603378,7.423837585280712,11.199765323795745,5.255145103423586
-0.6265852125877813,-7.515897458290816,0.6025264450984696,0.03055278294514529,2.6136454991048983,1.5145452302374758,-3.69535857410055,-8.012337092232256,-0.6110884771362448,5.171247918482457,0.9189118532415189,0.490031684290804,-7.28709683413556,3.491626298518799
-22.647995752289667,-12.990824485240989,-25.645312653803778,-20.031207523875945,-25.00302560477829,-26.36037576588675,-28.310780717122107,-10.715675592910298,-23.288946398762125,-14.852801909504247,-26.328870028661736,-13.84451824733257,-15.774152130598596,-9.244289904509564
-45.33075722530663,-43.06657015299221,-36.9280587074408,-38.77502959868563,-24.078995679164002,-39.71249506468591,-38.742654053721424,-40.67344773305904,-36.78165539112445,-42.01349024191593,-37.6416825089653,-42.79924883830855,-36.9807222985422,-48.385365738597756
-21.699198442299103,-27.034974492000316,-26.49609925892466,-34.32032105620479,-33.23336713823614,-25.798750546828373,-37.431745275634626,-32.852678087652095,-38.06587158641553,-23.041840939141817,-38.39220350217235,-34.11179771077573,-25.29200193585206,-27.258912467169488
0.030927420726218458,6.945107336483891,-3.2970234459558565,16.511425042880248,9.50887757434965,7.620234297059294,-7.762062722970795,-2.1130562519432097,4.139971232032032,0.7713237265752517,8.024756459725634,-1.4353128958049748,-4.580475055388787,-2.2093022326233376
40.66583065310314,42.838865778963516,48.914448856963666,40.1152523152001,45.27556520116207,49.139763446765,51.42946003154428,42.71430166150156,48.79464537139852,45.84974672509051,37.37073999635439,48.240329050461,36.66724134657555,47.99579792253169
59.995509957650874,72.92385497302523,52.61521362683997,56.47277340134648,63.54594952983526,56.27169236914408,57.85438532780323,57.942069920879916,57.66623829376521,42.88889667332787,57.57648037534624,61.127818530600884,52.82172209493056,57.53577970416581
38.2065836556864,41.52606347235641,41.95001302204718,32.01618131395637,35.59647873320217,38.853173862083,39.71992391032235,39.38278014893733,44.27811676614504,42.07735734604026,29.412899303184126,41.652835122257166,39.63158319825063,43.26480218095713
-0.7765431666673699,-2.151228417135228,-7.815407114002605,-7.684573245005144,-3.9648062685269987,-5.308872404153869,-4.555199323458511,-1.7792296883572574,-7.64109955552934,-8.780687764987011,4.315146895973768,-2.9229936418006592,-5.912481069665116,-3.9867053186980748
-34.92951507462363,-44.59459752344132,-32.071641240046816,-40.21567493159397,-45.89622409634289,-44.34473091705793,-39.480416982787354,-44.384212138948136,-38.227412372813674,-36.78938524248171,-43.925369680601065,-48.557802577664,-44.368027882432614,-37.83096960842086
-43.808656680365395,-41.22016162880373,-52.47643323128457,-51.77233910662865,-58.949038761930694,-55.82189322386194,-50.98100274220635,-45.03246149780832,-49.684014663789654,-44.98252875536617,-46.946058705334835,-54.67469461311295,-44.927731060721094,-47.753373845695094
-20.301845957836893,-30.605422199206668,-18.84344955742265,-27.78447293508833,-18.906483991118684,-26.975408208996946,-27.990135963190784,-24.56831962879646,-27.438179081198886,-19.774706396074436,-12.069003091354244,-28.433929138066528,-25.600535609175562,-25.890208050918766
-3.3028978680169434,14.435747161527452,-0.92559828324565,9.742581334449692,13.00216437169789,8.391708639539937,16.66629215356023,-3.097525954374701,-0.4346366889576654,-2.210601000354365,13.483484204756618,-0.7719691674824549,10.295288851853948,10.373899698012767
18.799887294872903,9.684527881159582,22.27744972355257,21.53774168454003,17.805193741657316,21.967237052235106,15.169414338687531,16.64733760798589,22.40731994420615,11.063369068064876,23.656107112427136,17.44787711473118,5.40361801022047,17.897566758799982
8.273891774235782,7.396964898210523,19.172252092988018,7.7475643200587685,8.419355343037697,14.120500631007932,13.267976450846856,8.75759820386771,4.1689672992728,8.270416854026148,13.264505406882495,6.594204471586726,13.0079670774424,13.176357290898837
4.5698221886138715,3.070163873395142,-8.856744450401504,-1.569032754824629,5.696216219685441,-2.833965124780642,2.4435346538058638,1.222798968504156,-3.1790427135712664,-1.0305678136378726,6.6831860634710605,9.759641362286036,-5.276855160463661,3.283277183464871
