AF3,AF4,F3,F4,F7,F8,FC5,FC6,O1,O2,P7,P8,T7,T8
-1.0805145846844264,-1.8864450361735434,-4.527870379265146,1.4485476110832742,0.8400877696084188,2.139566769323859,0.28944232851037555,-3.6227361124060335,2.1955449048339237,-0.1552041073432519,-0.9718148249474603,0.7592987053554455,1.5701423648838648,-1.8005064446134114
16.378503286247387,14.385611872089024,11.334444158820574,14.408049630889128,12.29956992776158,18.127880483207175,15.914004174410682,15.75456685347512,17.519015913990806,11.402796052933681,6.690644335050057,11.777108848371661,17.04366244106283,12.240035539074778
28.89509797158248,25.727545199110338,29.731830817371463,26.175316810511386,25.420451093603653,29.22636493811548,28.66180082671831,26.742457955329897,27.437700729004902,27.777561076117458,28.05487038995624,26.727677587086514,28.096010050767763,26.724343942339544
37.830277834656265,39.53939782519469,36.31302640235513,36.18781055469961,35.61084725839442,37.24695682787812,38.41183854448386,36.36074367593685,36.56765380770331,36.817138364577495,37.077239126547894,33.048743118686446,36.83810250388177,34.26440502820518
40.31231243741387,41.132145651592666,43.878256667600354,45.168994762895,43.00338809492078,42.984122352958984,40.64676470222432,44.173825132193095,48.13192527034113,43.14666057631636,43.57654784816364,41.6297609522261,41.26712341163117,40.34531837030954
46.454439705841025,45.08593508741191,46.00712940820193,45.25338089723965,45.090597473611545,43.88623442127946,45.93285399420467,43.26421975685758,44.90019416580806,43.78111152496825,48.433302976936005,44.84372006649394,46.7658458763268,48.67084422314457
38.713834250276896,43.38570381447153,41.06103932139837,44.109430592433846,39.703100126785245,41.98789998817739,42.76560471712285,39.28662192637816,42.86596684095075,40.0380276017133,42.45461027555503,39.79742652755557,42.702735799394986,41.63350422051568
38.44140308847423,34.797942620877954,36.51806420820213,36.17759546169819,31.755007721438254,35.22313944561585,39.536795987848,39.5173036551301,37.72439888452436,31.066215298653855,35.70261954715193,36.97073815462638,34.88955353949487,36.811822963899445
28.965995385691627,31.680071782815347,28.314523907176877,30.95926686351547,29.637782164405113,28.430107034062853,29.046720207777206,32.86945194823756,27.627659041407398,27.556182465369865,28.941863796402608,30.262706413702773,29.038035823919074,27.768178917870667
20.31846351774436,21.634516798748212,21.477190059528706,17.125981600882337,23.32283823250151,26.252806221482377,22.96651695276456,20.935408152644758,27.525654284161163,24.26877379377305,22.426445181928802,24.170208603797526,24.508390703161545,22.369738434282215
14.906601678238298,12.982200283843008,16.390963177406647,17.9752136135884,14.144586816445416,14.798898891209724,15.365976174866216,16.693956343034774,14.010975713596777,20.10539009650836,15.807132298119107,16.57521543453,17.13975541550821,12.994379940764775
10.765318814443807,10.527219763061773,7.739525283148744,12.22403478326627,10.342371875490201,13.057831152473579,9.150876326761253,10.292886013720816,8.185450604422503,5.456845709153744,7.3251357684079865,9.150795649624133,12.435447147907546,9.470433671351605
3.473098691654738,4.254231120485318,4.487967625550249,7.0146680305831435,2.2170433698772873,1.2334703904252295,4.7698171666943825,4.825003202085919,6.227017887562826,3.2129393907365134,5.591268800171746,5.233239755144145,5.379340238513895,-1.205900276224293
-1.7190682572871796,1.106518403533501,-2.8639091446087126,-0.15208188683280888,-0.9878090779080475,-0.9341324796925559,1.5717255687992162,0.9015784587405873,-1.846972425262019,1.0582080717656888,-4.452816543054313,-2.4950899217614895,-1.8679758108151945,-3.339971774495724
-4.727865087090546,-7.47932557716689,-8.833901719289369,-3.3193721303677273,-6.0073132403678215,-6.9507885780971055,-4.948974710022808,-7.905628787407558,-5.477334192126899,-5.006620264027282,-5.977524906683571,-3.7955377147826614,-5.871517535107484,-8.231176379629105
-14.676745905569444,-12.618377991387785,-12.024770115061473,-9.360941096030647,-12.998660638793233,-12.77570088164059,-12.35302799826565,-13.358847825884332,-11.504776918823651,-13.989765763920467,-9.623991188186924,-14.328635293368617,-12.235017290523732,-15.863949388942807
-19.751707147577093,-17.040971355005528,-16.924151511813655,-18.763789619541036,-17.358689844339352,-17.42951325893352,-19.5298047517102,-16.135977577963406,-18.677454622725133,-18.577869580295157,-21.453245560916073,-20.085899970723002,-14.094108614369961,-18.842363148941345
-23.859964769290638,-27.821615765211156,-23.00597691264511,-22.251292101420653,-26.208308108983406,-28.520686591025346,-23.337068467667052,-26.402987368684578,-23.327363773399767,-25.371011920201724,-26.323984041291755,-26.552249805399832,-22.878925981552854,-24.141532012989934
-32.97898162385887,-32.460999425790874,-33.71926357972312,-30.32445319879206,-33.177114533092,-32.0443489276307,-36.18798547982506,-33.19356271505936,-35.50267271432869,-31.79909450716178,-31.24486919421514,-34.8767215493436,-34.170505052800095,-29.853768184129407
-38.25003449641942,-38.899593596732394,-39.72810574465046,-38.69826335387204,-38.36015681104152,-40.17812971626158,-38.66819573827781,-39.86261350190141,-37.42438008054058,-39.37156340360062,-40.14665329359814,-36.807800753646234,-38.657834757614744,-37.0835434170844
-42.12944795570016,-45.374471725165655,-41.248466800760475,-43.5405850871754,-45.59745189441378,-42.58149500374184,-43.454740606330866,-42.95921129078494,-43.31777991770348,-42.36229988705212,-49.25431448887395,-42.591845677226196,-41.80042191812264,-41.870636559477305
-44.48419824235359,-42.80541942499067,-44.00894416173354,-39.78823706153038,-45.67646672397131,-41.78384609749106,-40.51104862692152,-45.797555416092656,-45.62117553729241,-43.99406295253615,-44.54040601832746,-44.891154209768516,-43.88062791784593,-44.737491737367456
-41.67607513916459,-41.15247377546616,-42.21440962276287,-38.73550480030365,-40.08313745763619,-41.25000725445732,-41.80541297632931,-37.88881673881939,-39.77143627135725,-39.25692419271053,-41.95933124630787,-38.09800358923008,-40.647437096527426,-44.2260891352314
-34.17948304777672,-29.92344633551376,-36.4056171518241,-30.18784519113907,-30.068077048915608,-32.908276493912034,-34.125646317002726,-33.91435637554821,-36.126513550144985,-33.41585263355846,-34.90841625776211,-38.017378548769074,-32.10450528079567,-32.29429530520773
-21.277917498046055,-23.293084609370993,-17.836142116393212,-23.330112328396766,-21.220449345401754,-22.679350326835955,-22.663476305608256,-21.59352152625095,-24.934930137618085,-23.202704927158365,-22.699897420551952,-24.4982421013829,-24.653582784818052,-21.580608263703084
-10.009556924354817,-8.221867643009151,-7.147109934748688,-9.785509925179152,-6.247711641420051,-9.794287619107322,-5.1974410163642135,-9.258589506166937,-8.337511634200478,-7.123403728993616,-7.374805218528017,-9.430603126286421,-10.090488291418831,-10.242387975190582
5.605468755834475,4.885979863393876,7.804763849517031,6.510796201266817,6.1537952941297425,9.059570536555508,4.325818180171096,6.702669223468668,8.948329102617485,4.862536535794523,8.95000094397359,6.458809319502049,4.96598721656781,4.53800558078652
20.102733953183087,19.416699400249787,17.65364822628044,18.65147965617467,23.947373268378428,16.183496924092086,18.52164055900934,22.37448689600982,20.582361910336793,21.57068589858305,22.224373236857993,19.437356589016083,15.589123691123113,21.28743250694258
33.37746690237654,31.11526575118106,32.68506062364926,32.89881212879677,30.231850489490213,33.24715784711125,32.93692917681416,31.934062387169423,31.616230891204903,30.289067211805975,30.74849716814567,35.74542316276426,28.325747341126515,33.61398749231665
40.144787728411735,40.67319182696856,41.01112348511708,41.217313676354756,40.38600075100515,39.82161063310353,41.58037259105667,39.84499444669199,37.916121854325475,38.25659747689961,40.03139763132803,39.01611632459912,39.554551854998564,37.67755073312222
42.925441377946726,43.30640619105116,39.99478458575163,47.20468707512292,40.62335639747659,45.08870890705882,41.125465399820456,45.06014937473935,41.48685367521666,40.12924261159577,39.38846142397628,40.29473424922297,43.599901630220835,42.41542346448225
43.70712464360635,40.48789245098132,45.168187722611414,41.315790368046784,41.61438226383036,44.81054547023908,43.48119697196142,43.895201902186976,47.406900290382815,43.63018447846493,43.245463654906786,43.71777121346154,43.20362574728016,44.32460759887034
40.390891176241524,39.482119960034154,40.0051233824926,44.06730364506782,38.3490524936333,41.24025614501603,38.73133682856184,36.54542656699802,42.78253678556822,40.62707506574268,41.08815752361065,39.19113059802871,37.618261590502826,40.50370460986536
33.753264547364836,31.289708652775047,35.10399153275164,33.01429345559426,31.41005215215811,36.592135636817716,32.26195223125115,33.59471561390703,33.81409230570477,35.09422428909312,32.758425524778524,32.224385922541806,33.662153491621126,30.097066130752495
28.1932535417368,27.93655516612719,26.277886057322167,26.90493130699947,28.115569284825924,23.953653235792263,27.844488963777255,27.021753455015343,30.904217701716664,24.72756917226878,23.432930751701246,27.117799928996547,28.598159893514854,26.43749782965953
17.34247516301244,20.176437392756178,20.65653749018079,17.29308413509203,18.266335629952003,17.614872317357058,19.805280302429217,21.141217487603917,20.01885643979656,18.477930608513685,21.914276982218635,20.166958503666482,18.652066884644523,21.443928779670138
17.124493368534388,15.76649609435166,8.725507976000799,13.741897080704316,14.59639530889861,14.071284399369798,11.479420254992174,11.703019113942267,10.922091785073407,11.989965077766357,9.670545904819917,9.346862476985521,15.011494873125772,10.049390668208979
5.018536461683066,5.067630904949284,9.687594934488574,9.201957225902161,9.894083667857029,6.776399756220114,7.829365215946057,6.066468439657561,4.869253960207331,7.4163820258060085,5.6656595553858535,7.939787914866877,5.621880976284353,8.316470417406899
1.999026969767426,3.6860070063138792,3.3197711260808376,6.762013431181018,1.5734724103331048,0.24452342824461715,-0.5661687450531296,5.102560107414747,0.2921637231926826,2.0912887417085204,2.4589665792606374,6.299716158028897,5.32563213064992,-0.512661994109997
-1.6457316374757518,-4.342628426942342,-0.8766031056661445,-6.4696738161070515,-7.144292443578095,-9.974221766318752,-1.5781395209477533,-3.4696157407402217,-3.7266749614179644,-4.013794269290321,-2.937327870379482,-4.402094686350348,-0.02309830504284527,-3.107933510527737
-7.397384248557807,-11.271247041740875,-8.456205821405261,-6.404720346389757,-9.364114341196935,-1.0972971676563938,-6.771035596415041,-6.993937001233091,-7.717943057515468,-10.50407513206271,-8.142305794212643,-10.198569560921108,-7.197047139946107,-7.91112158539026
-13.365962493212352,-11.218665772561458,-15.39171289802389,-17.00411745438698,-12.606885234401908,-15.257699203893528,-13.086448282977903,-15.660488357793486,-16.09832519157434,-14.598810409491906,-13.78519807523506,-14.675145180694358,-15.472162975940284,-15.056791851984357
-20.266903730981422,-20.61935503009245,-22.506775772433127,-20.518553765586688,-20.952838603768228,-22.24117915187345,-23.030913247695036,-24.373137114554254,-25.12918118166989,-20.719074344235814,-19.276414193423165,-22.357466456975384,-22.38618835640352,-18.269175912491296
-27.795053050713115,-30.493774542172087,-31.336547394510234,-28.2553860068591,-28.85784391018864,-25.522898239284707,-26.522992589964492,-32.78992502628768,-29.184265771848267,-26.001503090435367,-29.596340708991125,-25.779427921773046,-30.261077328363143,-28.579061992242416
-35.48075348246857,-34.15051039742642,-37.146366049523884,-36.8272691989153,-32.42045183668212,-36.91930752888135,-32.38610039148615,-37.23742369062047,-36.859735291955296,-34.2188251005744,-35.60956392130495,-34.64742331137224,-35.555142098959905,-36.9594114439269
-38.58380286051424,-41.03905288819574,-38.10367408210689,-41.35550697216379,-41.97591217467288,-40.23227982035787,-41.6013990720399,-40.22573691571049,-43.957811311789925,-40.15506566967739,-41.00056607145757,-39.67539771048658,-40.329093758285275,-41.80164682556379
-45.095927473232194,-44.213771003142114,-46.16378211520937,-43.37353807599568,-47.361325379813785,-45.03953650475009,-46.09778992541285,-42.65327681411825,-46.479608372974056,-43.08649141990267,-43.94074163912301,-45.57934189794112,-45.69148387851749,-48.65117345217036
-40.852111278745916,-44.516920462447686,-46.757351592056516,-44.06358508206022,-45.7476993195683,-42.965337008102374,-42.02957304580686,-44.683100067525814,-43.48700469682256,-45.33293457717722,-42.52357783854358,-41.4576528350235,-40.95257841782379,-43.25687261676115
-43.794872276422495,-38.0250069101795,-37.943061599242114,-38.28023420612552,-35.80556645977269,-37.766987012953415,-38.45806665811541,-36.17706304303309,-38.217719483382766,-38.39993763996052,-38.44044554839411,-36.719136834867356,-36.92750031563293,-40.24067875324957
-31.231132065596857,-27.888492960956338,-27.716073779454394,-30.87721425942272,-27.581990078673254,-27.838668834680636,-26.03778849432183,-27.625030463911454,-33.93799733697346,-30.616505193675106,-25.762807693425575,-28.975274771194414,-28.01090319695693,-29.48491667812991
-18.495109422522788,-12.94544238736162,-16.27015958535176,-16.691024873075552,-16.50942808894666,-21.582503378108342,-17.51181777621012,-20.9747009278354,-16.029208930968647,-17.047759543651736,-14.07229186163049,-15.662020263123694,-17.79353749698301,-14.693994083986528
-3.9767363920262113,-6.956174385902505,-1.6348405412885694,-4.032299153737079,-1.6506655166016468,-5.710976045237426,-5.1269276325658915,-2.4057947545465814,-1.304043144936948,-1.5865832505917201,-1.3871029812065403,-5.5654662907313455,-1.7082360435563695,-3.9955991484081625
8.048105602255648,12.858774394720403,15.464625271250013,13.70907798617274,12.945805752998913,9.364769119759764,11.12955970471563,10.830452823147853,9.988734098088756,13.043430176042396,11.41168641618505,9.379684705638866,14.329327901729336,12.129680766830427
25.843599935856357,25.59863026475631,23.95361558160019,27.46905854225683,25.812883352341785,22.506229682262624,25.820852217771186,25.38587038342633,24.149098926887792,21.53508577708285,25.783687357119145,25.497751145122447,22.173425266935,23.305640409484383
31.949249548907833,33.61039528396733,35.77589571902306,36.65546988895461,31.826683324115642,38.95134163868076,35.62466080125137,33.60470201576483,35.9871977131709,38.071395854387525,35.957333426379535,35.661391423212066,32.57515427708966,37.087430709518955
39.86283778485027,42.99135183042958,44.852674248276884,40.110075130437544,40.024850494885335,43.50633118294952,39.73200065041969,42.32463253402367,40.633129905886946,39.532712947170424,41.039077223165656,41.78989676149552,42.570998954793176,42.03231488605667
44.3502219749837,42.93976338432648,41.35413394511908,41.216598468520814,41.64793086259877,42.99889546980134,42.380301914375586,45.62401685870456,39.268970276797205,44.56038512322806,44.01592057653928,41.875335771892345,46.09596800013616,43.06521582495714
40.03398162050678,43.52282221641547,46.0231018438531,40.569029061952094,38.5179272906981,45.023798178768445,42.37910467191128,46.255563823275196,44.00602456160901,45.624574413295484,40.46152189489633,42.96954548444301,44.947446482763944,40.926757626505434
34.50756846604,35.9802204154952,39.03714872173442,33.69699431628998,39.6353227829249,36.617237188895416,36.882375063263225,38.682586543160284,39.594603933662164,40.60812204173166,38.88426158282806,37.40169748776574,41.00012361750272,35.147429700252275
30.123590970203676,31.219849928683015,30.088952481765162,29.180394448633493,30.926590265636182,30.711535617680944,31.261286603189365,31.89299966754693,26.382757471928052,30.795483478432153,30.70796841511122,32.64098604139053,27.461248834051023,28.004767059439143
24.24626887881301,23.364392734358685,26.394937263199758,24.730451420989247,21.63764375406578,20.542127509401624,25.356662374256818,24.322639610725673,24.198883162467897,26.287353112476794,25.164568644674354,24.79425932960773,26.62328741108777,25.778306313267414
16.79939676901133,18.998039407682434,13.954105073823465,14.820354780568913,16.754509809124865,18.168281042382826,17.93918305909186,15.837845865773287,17.606585212173506,14.730136701742651,16.645187811104915,15.902476397293853,17.671367552647986,16.650864682868047
10.744778011484932,9.697128877080017,9.358175048290649,12.863848014998268,12.540883061933368,12.512809178806737,8.683629936637187,9.622292261211161,13.825613706247884,12.427156531431333,7.733530312434189,11.763598148777016,8.777728027260132,10.893985154454242
6.36200105463498,3.5957330461116563,4.756243496556518,-0.5516211237645505,3.560699281352302,6.53677583017819,1.6781479731687576,4.948536897664685,9.167260072002666,7.151823949272675,3.739860462432548,8.29268333101275,5.655603798618389,3.7736744019973396
-1.386578431770294,2.0052845337294274,1.8314842815376189,3.230685490858444,-1.9702681243712346,-4.0862514731276525,2.9279961626570374,-1.3883695109096554,-0.34180268085028,1.6291209398955375,5.52236142784895,-3.5236886440530704,1.000542158008067,2.0087770570338193
-1.5884200575581766,-3.303568769533002,-8.568125041747525,-7.496305704947437,-6.041644012749762,-3.583133292248893,-4.172902723440126,-7.027761534996956,-2.8421032570480387,-3.8501693793586664,-5.82958861804617,-3.6019187917547955,-1.7709905929371703,-6.935531642948439
-9.228608701196634,-9.552310067538048,-10.786519919936914,-11.773303868956773,-9.628369498295845,-9.725886516190913,-10.035971746918873,-12.316510249628505,-12.331848306795775,-9.369263699397948,-6.833691954699649,-12.7204234311621,-6.869830399803012,-9.38972130074286
-18.76325465970858,-16.835297384614364,-16.98685314657491,-17.430122380516117,-17.242474826054384,-19.002535233121957,-19.009930915793134,-18.377989241718694,-19.234843479067866,-17.375306345641363,-17.06599630303559,-14.673671324018024,-17.821172356369424,-16.794153069889532
-23.212664134217924,-26.389563649977426,-26.258813125481932,-23.907485675780766,-24.113296693639438,-23.40895312161206,-27.24401232155079,-24.097379290682824,-26.18015979616774,-22.93005941313017,-24.81805339811301,-24.151007394557116,-24.98396104541911,-22.938427083271762
-34.19234843097743,-30.4424646774974,-35.37344774933814,-29.35783114711355,-31.543778332439764,-29.354548113922803,-30.5137248627336,-31.792853885474536,-33.01583802247436,-29.816792436043546,-34.27356982563131,-35.347317372146705,-29.76387317097365,-35.846515425042924
-38.866941989582656,-40.12570442061416,-36.89545016798345,-36.797663521089966,-39.95863943681279,-37.052429800425706,-38.0138993998021,-39.91534753773428,-40.0252624959114,-34.174798823938,-42.84089563693075,-38.45568976828916,-37.54832962483943,-36.997363841534295
-46.49224912852078,-42.392529142735896,-46.280365573271226,-39.65093347800912,-44.61108307701234,-41.16163375292631,-41.94781504099026,-44.737224571301226,-43.196249714516824,-43.15117877777964,-40.29909920814816,-45.61852105625733,-45.01512385746824,-41.75602293095278
-41.327711885961946,-40.36608806447343,-44.80171582964441,-44.24096305464261,-43.67285148699327,-43.37584335573707,-44.93654333465593,-42.761489710363826,-41.19276638911541,-45.858197075662964,-43.55298302700547,-44.340708392925514,-44.15277892887803,-45.72691461626029
-41.92929540712146,-43.44726015398281,-43.31858343047317,-41.11981337453342,-41.23698881131368,-38.63625544388336,-39.50685015818235,-41.436922794163856,-39.997750557265846,-45.73575549042781,-44.316394579126225,-46.26551745271724,-37.2244618196697,-39.73233427234019
-33.397137511028824,-36.47388552943789,-33.40386666096994,-36.615842632451105,-35.74571512582698,-36.373030725477996,-32.97326994635096,-33.666048874319586,-31.618827620719305,-38.38706376600948,-36.00360224639366,-34.64832029413104,-33.90719469070653,-37.51328596972898
-25.915759410800607,-26.348607860534162,-25.682270732302822,-21.265633271542875,-29.736837253177725,-25.433405742400847,-27.014709968008138,-25.238924055742782,-24.640743773459207,-25.48973871207951,-26.917796581759582,-23.026170761247784,-24.387372540851263,-23.949563672202405
-11.388141242211402,-15.926355574742576,-9.213615843091857,-11.580367894116984,-10.528112119557413,-15.527752961229664,-11.800353095590452,-13.337159045062165,-9.97290556238891,-8.676084298564927,-7.45014526527488,-8.411426183779534,-16.721311112391724,-10.971875126246083
4.212538225430524,6.249619107325705,8.994748808704529,2.9874009129589143,6.327760549379146,2.302215383637723,3.499435920583784,2.3782797230118717,0.8827003263169813,0.24453504118674063,4.413348552998743,4.46026112176062,2.1143106583580797,3.2113275256742426
21.622564640718196,17.851613109765267,15.57160370201419,17.096825009938357,16.572737929170202,17.008816116707596,20.212252726169627,16.97457076203574,20.46843936368722,16.337056383876558,16.136337189790147,16.79744606515096,15.053595694995845,17.760619644205896
31.527818075162884,31.51532609625151,30.309897784949264,32.8681571698899,32.23036992052075,29.88051743959638,33.38214123367493,27.906807070425472,26.964488979444365,34.356665524151666,28.467787543937003,32.528908435376586,33.1160148298833,27.281920816683936
38.98930587117585,38.48131167924333,38.28186549008804,37.61488271761075,36.44082852811961,41.30915156429556,38.650533754635816,37.02406904566675,35.684858464021225,38.752745175699005,39.7527686508608,41.37741690593481,38.7229481025565,37.02639586112729
39.23910765996643,45.830519846847686,39.32940421327784,47.30246102385906,42.54866165302198,42.16537779970383,44.381269351732485,40.413211327938896,43.81027055659167,43.18483743422506,46.364365011082086,43.09086227361489,43.644544933952744,45.81997117066218
46.8613314859073,42.25221555279134,45.70713777989177,46.45723502108607,42.08657647972209,45.83939025441676,44.24920162940832,44.40879940551764,45.66366255812759,44.29911080276176,41.86533990346175,41.76460715350608,41.30665499596057,45.46986606780207
44.425655641947856,39.68190279316618,36.89505124479348,42.90373110919071,38.815445205632045,39.0229439225795,43.16890966694891,38.482953916006196,37.995962035813285,40.32381928332286,44.26879882338896,41.75581088210981,43.72288813932592,40.39960170911059
36.978343582730574,35.142872513986504,38.634230840172556,31.954979899790242,35.19114420992908,38.558487745818226,38.49179229731945,35.910481874594886,40.65197532335102,38.53679957073434,32.38399615063513,34.72692384428708,33.5897743865836,34.76196770791508
28.030070982750853,26.72553136701783,28.288381308484617,28.010996148951893,26.48523673555971,27.76141355443531,30.61868250296082,32.71176905642167,29.114610754858344,28.677331778695073,28.942260372262552,27.958363491812992,26.050860060576642,29.450099545575195
22.541228428114145,25.79575980661104,20.370356146743816,19.23959585287561,24.172979948279682,19.715702221822845,22.517774050002526,22.410312506446477,21.242695716530186,19.77705923024532,23.956722732396763,17.040356349809805,21.87905184099227,21.338516863035675
11.458950071491214,12.496989418651152,13.896644388335156,13.562267120674958,16.718914565767662,12.288796529811462,11.442494312146735,13.494846613336058,14.395874490192917,13.064735380371992,11.385235098141596,14.6304158072356,14.303457859868766,16.30221519930282
5.51979005447868,9.78612900277367,7.8274557154620235,5.117800867235697,5.762415962212293,9.689119861402544,9.841697506211261,6.994082085386629,7.926414119958789,5.9064165651512415,8.535950951105425,11.373299837053851,6.2402430152939,9.331410333134347
2.0315952667867574,1.407007447006486,1.4387233555778731,1.0660417770072732,4.5318465260585805,5.4281978201706345,6.441660298485306,0.7800178834204439,1.654793709192911,4.241881595017288,0.4630604569292207,0.5159481507426933,2.6234073852522943,4.404321724224058
-2.456560311975907,-0.8613909989207222,-2.017939770817619,-2.122438245330577,-0.6648289963828322,-2.619146349744693,-2.3247185939630155,-0.974577461931869,0.17161499476990905,-1.0309321274842134,-1.8928020369711598,-0.6160028992491351,-2.226852091695607,-4.107785834787013
-7.379125896747115,-5.126273477853431,-5.3820263797614665,-10.953970122238594,-4.94271855007235,-11.375733824471917,-3.541540126480058,-4.491839908332786,-11.89173672122671,-6.420815846365643,-7.085647865919949,-6.406741478600879,-5.985396961395008,-6.766639948995562
-14.331072391165883,-11.480489926437745,-12.732095772170073,-9.223754137419277,-13.769893080916372,-15.569641658031212,-13.4417157221596,-13.435797161699691,-12.784130260614242,-12.785837223998465,-12.228151529864828,-9.78076592447811,-12.548518307489593,-12.735962791174025
-22.479776812315613,-20.465677088719367,-19.895493805274622,-21.59824645693346,-19.986420103389104,-17.799971373093893,-19.478078272647345,-24.39522599018951,-16.612877045871986,-17.631605939572076,-17.902602951411925,-19.473633212265238,-21.778756081598335,-21.381677606274348
-27.402281431963168,-28.41140090209693,-28.985154475306675,-27.77346242706718,-28.787196588037997,-29.68645751236298,-24.955540730103028,-32.34938432048432,-29.56297064620053,-24.068710615066284,-27.658353989538938,-26.649499026121372,-23.534915037494443,-27.691468605538624
-34.61689654848751,-32.697865025469625,-33.32227968707562,-32.29448530251635,-31.162719918769852,-33.12756541699667,-33.41569854458341,-35.16762246669436,-36.46825157495351,-32.58381183731533,-33.7677190510377,-33.83457870744172,-31.806120816833552,-34.66349205983146
-37.97189526651966,-43.489960110375314,-40.842341158314994,-38.40097875750797,-39.79765840170018,-42.92326572303132,-42.108271228752194,-38.72222451964784,-40.246799494840914,-40.59725267577465,-41.835066094003686,-42.007031791328785,-42.68403630560671,-35.22776489212811
-43.13788767914358,-42.39441815466338,-40.17894468054492,-44.888188454541286,-44.98530587870925,-45.71535719551702,-45.048903629846656,-41.201220433485176,-43.79143879713084,-38.31530030963695,-45.43352230530535,-40.82551501773076,-43.69264813808273,-40.63240912136739
-45.02626458931679,-44.01631285379936,-42.95239151878671,-43.52118713698841,-45.93342369757823,-43.00154886131125,-45.1935538224529,-44.93245772386175,-44.613952447612704,-41.05363847957673,-47.23743390626388,-41.460477850665846,-42.3467109692044,-43.10960479121068
-38.359058279756574,-38.41009258332666,-40.03635889691463,-42.425710664423946,-41.880782155695805,-37.45710767964309,-39.01629602794451,-40.82692411472574,-41.17630138580492,-43.35261839811708,-41.740739970364096,-39.873785946984626,-36.03774758666482,-36.45096908114706
-31.660034132988912,-32.21635648887553,-33.353866496568614,-32.107558486929086,-30.760703346359918,-33.02521981931791,-29.668417996125495,-29.075955791543603,-30.177088839178893,-32.66073943156294,-30.467766898613895,-27.729476311139297,-30.36499151649854,-31.1460426262149
-20.83772544895542,-20.77659125913494,-21.41596493359866,-21.152269499260473,-19.709311877274594,-20.068048318016984,-20.47282635966399,-22.044880949961577,-17.116400893176102,-14.619891918614933,-17.433414920523795,-20.282083584573524,-17.049371215432682,-18.543755125906397
-4.350917879810099,-9.523511081209552,-6.35302854625841,-0.8031872558528166,-3.3607562450700748,-2.836788495486985,-7.160531813931195,-2.69513641436739,-8.791141648146251,-4.4551516964333775,-3.0466982565946323,-3.0265809257029073,-3.319116376066284,-2.0743562111235505
8.95678434890068,10.382479361230864,8.285211975787462,6.301697332064372,10.115523168788998,11.14426127447293,11.161295340573487,9.256865633998588,13.08797029956682,8.298039521350077,7.55096865173856,9.553556263208392,7.0832254113453175,4.192336533244421
23.822194292210963,25.078817821861414,26.28498021447722,24.113183217209485,21.354423755804874,25.369836706985133,25.23467852887747,20.72419912851055,20.399395032073464,25.809891045442537,22.08957643157913,25.162298424648725,24.700153240797167,23.683597279569042
33.41522567692906,33.25946373663249,34.10908194382117,35.834107295992474,32.12857855219465,33.55198257099187,34.689417540770215,35.56160867863123,32.89887503700381,34.11413520246591,34.49039264931116,31.841476008626874,34.41569694547615,35.80674214315863
40.16434448807478,39.40882259606522,38.4652989816354,38.78816894010374,44.48417900903066,38.364648854600006,40.50318422635135,38.92497824291338,38.624878212200656,42.89475081709866,41.57882747248346,38.631465259895094,41.401272596822,45.39099738414996
40.82533741749723,41.26007329492678,42.881357541723446,48.3823816165689,42.53886520009214,46.22351045783872,46.05463601280205,48.60894103227865,45.25914046600139,39.799348793462784,45.44836722114844,45.47632218546233,41.1057745443393,43.04440300035953
44.65861120702483,44.11655295664715,42.28477426801139,44.42281511106147,42.94004507837798,43.195211659672474,44.12449290365509,41.51709476516548,43.74186002973194,42.405308253910235,43.97825820218015,44.84615740424638,40.74543037650382,41.906264505236436
38.65627771841549,37.78417157783782,37.90672997214377,39.987229234591595,37.10669953732757,39.60600124442964,36.048427723719165,38.75236868965204,37.89685264931006,37.15844630750154,36.66765987140387,36.693756044749165,35.39126777557792,38.94862338969397
31.79274677810872,31.03820815717909,31.211082532756883,31.043337348957184,31.871475419620307,32.1152593262483,33.647320155653475,31.527112459650578,30.81361817772285,31.884187794533517,32.821846446265916,32.93920382085135,32.09412869848879,32.17981611846097
22.97168414609696,25.31210291176315,24.96533678490961,26.224966442920223,25.944706012913016,24.17378584158705,23.782982559878377,20.673003671063228,26.92781525810601,29.70849841886968,26.224245856337795,24.743209596430543,24.90395032864353,26.945974547254828
19.562611278904857,20.179642471970137,17.972136232298855,16.785724061357563,16.6956377859673,20.515777604765287,20.49703111013737,22.78429102437576,22.95182720039819,19.286335221473156,17.798261746005895,15.044365897851804,16.56564396759598,16.04287469323207
11.227125882650409,12.52002459317846,10.405435181754475,7.053368028875022,8.789639347771692,12.025628411147018,11.482323459709292,17.065515976310465,8.11986900758179,9.409431580048635,13.467990351064866,7.745937526044706,10.662248228145316,12.475980644967935
3.2174805360764496,2.448940845587517,7.3814929160571,5.846319740874531,6.865749548520313,5.272472624897038,4.46291963600928,6.706241827018007,7.70030921872986,7.208147538737755,4.935932684888857,7.063824001882049,8.642430573096616,10.306090094383851
-1.3265688065169006,1.609475747927891,3.581436050493261,4.918400615007587,-1.8481776638037906,0.9280398459174227,2.3173367624009735,5.100084486155821,1.434296824988635,-0.18302255497250264,2.8520058784264544,3.37933366030427,0.27205961271722334,0.08593629991717022
-1.5998040977231827,-5.494193376739346,-5.589119573189839,-3.289854298377742,-5.269195634389787,-7.6965432467382,-5.198806073841045,-6.926428226212884,-7.016173836230005,-5.390422135826458,-5.226329784692964,0.1992601356938879,-6.547915956426813,-5.188069626867966
-8.990856127033002,-12.52055643286764,-10.962787768361943,-10.587071901010125,-10.69502418589098,-13.063017729592511,-9.182550326417099,-8.734721523202245,-11.145995652211838,-10.901713793836244,-11.020641954714009,-11.720901703824369,-9.466538416675597,-9.960417069492776
-14.5477575448717,-13.754841714712288,-15.768911524576106,-14.183083710223112,-14.514247545965688,-15.744108461690134,-12.48450016551885,-17.81105564134794,-15.95796547428287,-17.15795368694212,-19.064413889368517,-16.853126200695083,-13.878292220485559,-17.407571017122944
-22.3534561657554,-24.464577656433175,-22.486745720063414,-23.025739576622268,-21.17463948891699,-25.377744222063967,-22.583592728784254,-22.093381214825886,-24.21885051531354,-19.963274534424794,-20.073444269740747,-22.248844723108707,-19.222055655454355,-24.924507237097473
-32.49201715226049,-24.61236270642395,-30.109694557603504,-29.034769667773208,-33.29348472087429,-29.74599333723296,-30.742293454418466,-30.07820918231654,-29.172218230280958,-28.445511954983658,-26.999861729220715,-32.92898558464078,-29.476785237955884,-29.54768697087892
-37.09554557520739,-34.00542872765895,-37.11760725746414,-35.24381400808576,-32.852981688611585,-36.50327324629499,-36.20824260935647,-40.87626219099977,-37.39474230086891,-39.58883125690866,-37.57843569588959,-37.6668429282432,-37.25368776440709,-36.792072472579086
-45.263527408714154,-41.29807985439525,-40.07919002261292,-39.519618059994905,-44.52224655948106,-42.13517597589668,-42.41710662863522,-42.68715518556988,-44.40713734499477,-42.68435548377767,-41.06139326686931,-42.51979423326714,-44.513515878015994,-45.54870306934107
-46.90067961482592,-42.223251008394264,-44.05365386048374,-47.335751973374165,-45.638808121034856,-42.382426018186045,-42.52981039730223,-40.6663451679921,-46.2880790111753,-45.89393916685278,-42.669664308785535,-45.7552118266598,-42.59395849832596,-41.55863471434458
-42.05728401706889,-42.615309913855306,-42.351294999532044,-39.819414208044215,-42.997076695145296,-41.74667805523653,-43.828498887330284,-42.199707921789205,-45.22175905548565,-44.30963574524108,-44.109833018313886,-40.71927182682499,-42.936058254114585,-39.77878584620199
-38.28274959598323,-34.131904687285804,-34.4944450653107,-34.35490236928136,-38.38601577218746,-35.59898173043191,-34.20024708601065,-35.78560326579432,-33.713428299744706,-40.246355189120834,-36.42279130175368,-36.549453655962715,-36.29761793044793,-38.278893181677326
-26.353255340026774,-26.874499304179572,-28.295323502366948,-28.71703772206254,-33.50192040455995,-25.85554784489541,-29.34032760961509,-26.078247182168006,-26.14425658606387,-24.047224388161577,-32.72467678598009,-27.995088770814068,-24.496256613736364,-22.55463131311483
-11.878146864504814,-13.93964057015208,-12.41440028976572,-14.015909193468138,-14.392121955632586,-15.436510983141076,-13.747928795953563,-12.381341529603398,-12.074503550069393,-11.381203387219685,-12.498702433418666,-13.837494482196224,-12.552652868088932,-17.138451563296858
0.5601107042107485,-2.0572290632258836,-0.040640404560648435,-0.6994441850950892,0.06160525784124615,1.0388090747017333,1.1345188101917993,0.5561108275986696,0.08480203740357006,1.5743853398147127,0.23658860788275476,-1.129514958191661,0.6810580943680985,0.15578855272648717
15.196921023723222,13.974665976845108,14.641247153814485,14.950328544416953,13.270569531463064,16.15614906737683,13.162729365845186,17.972150911288384,16.588923642253157,16.901221879147023,13.159330852307445,19.78116532376243,12.784335240436086,14.354277929912163
26.721546206779415,25.690302692226183,29.595646597052095,27.281341506782688,27.83401770052953,30.941688741029324,28.095048805712665,27.941944318375818,30.873198687050976,24.902298272075186,27.300750096685388,30.83971170527124,26.965785635329986,27.577123444231777
35.55961705083828,35.34121617376315,36.20742252395108,38.69928655553845,37.46127349580213,40.98699757882334,37.24163145849969,35.615397719387374,39.21015382174492,39.602652661412016,36.34314420546364,32.72350400485171,34.180124237875546,35.18367235466138
43.14487946776517,40.74275671003653,46.78450027441766,41.60631700922516,42.164986250046105,41.6463470785646,42.492572102888055,40.623123977815844,40.96526448004297,44.9164195043893,44.765344144006924,43.758607085084314,42.85241103656869,39.3230099001041
43.163051465733076,48.60381167615395,46.443774103570334,48.27780135899987,42.006281479502796,43.74487058698918,43.636496631702066,47.80865078565261,43.13826113723144,42.70224277600353,45.25080139546412,42.009828492288584,44.10295606806227,41.22262959497394
38.57432695004251,39.34583059630444,39.65257927497324,40.67578880351851,39.62538973502982,41.85722925050694,38.93870424839713,39.88931388407469,37.90483827194839,43.207326680130635,36.76434495132979,40.480562935830456,44.06735717711763,40.0720847751657
37.40480158529933,34.682917197421766,38.0788203375784,38.916632124014356,31.962970602301144,36.86723303530399,35.94720414246089,36.693425841725265,36.96568770821242,34.34813467069744,35.38073334719442,30.95951494087662,35.15826182456155,36.21034960042738
31.70056872787377,29.776071642366233,28.00877190591297,25.29593680988998,27.3628537877433,28.90222461540464,26.913862423459626,30.888658960002385,29.238572820445373,27.393867005758118,29.805783392893126,27.47125702059393,29.53578326081173,25.251791883027124
20.710701631964366,23.641406337011198,19.589701920485165,24.810215386705238,23.519527393047905,21.950296588204488,22.70661982586886,20.2460236516218,18.94946384952311,20.90946533329225,22.169487752257126,22.083056611102982,23.128350635211465,23.111136281546607
17.730905700953798,14.615058996570095,13.555048071753859,12.27190085590265,13.50281288369421,16.21822048830993,19.21442896913175,16.183964718136764,12.698093608351876,14.118211592535651,17.115345857141683,16.841845193462937,15.203234666260009,15.055868068291048
11.512415741633612,7.2076510532255,7.308889898263631,6.153177674510269,12.17125665312137,8.430077603302143,9.764795548608761,12.037627891139326,8.932003981155042,10.086500893286576,8.62559296280212,11.156387768822293,9.41621800265969,9.921860335344109
5.350140198770159,1.328837866705309,3.3778943398132704,1.0283705318738967,6.793526686149676,5.4575458588855525,6.1216853833791,4.562711939777834,6.2824024816305055,1.6870443719085255,2.586472432289539,3.8436871378442476,6.398896843690935,4.374839720313105
1.2036616892863397,1.3351612199950014,3.6501864426187423,1.5080061434993366,-6.385225899556289,-5.204395244532463,-3.7227262605666427,0.02437094995727951,-3.2776481792057837,-1.5686310199879976,-1.5184785705617496,-4.065935320367822,-0.04871898159625987,0.7232455984997712
-8.199224908728237,-7.686145994346785,-7.549623992745371,-3.0758587042362926,-6.9611349710753645,-6.652402507168379,-4.447322004293524,-3.3099734002422,-5.245537213661649,-6.664017335740562,-8.89533916069344,-8.299687446322014,-4.248229551002975,-7.261318099592917
-12.303794317417195,-12.339195327494242,-12.308743496265523,-12.856198978210426,-12.36664883500607,-7.812036611401265,-9.398599514373824,-10.32805163414081,-12.787221828567208,-12.623037347117393,-13.72037366035221,-16.30414290436417,-10.057323088291016,-13.130489230239863
-19.003451263319512,-18.43097986548827,-16.28868180739247,-17.61266581739327,-17.50560431804598,-20.258949948034033,-19.98941506410494,-21.423698866171616,-19.071746648835568,-19.779997391849335,-19.512625675951433,-17.679642676592852,-17.894082101081075,-19.947359725148875
-27.90877202175269,-27.49666014504893,-25.56970102919882,-29.4734788836088,-24.254720217522497,-25.564958615661546,-25.681530986410284,-22.61187399064411,-26.923915130212077,-25.46146177959328,-24.95098391841631,-26.10812077400936,-24.810921454609133,-30.373493059955372
-36.42697364354914,-32.98155207615178,-35.615883192496156,-33.70712178611048,-34.233846086976335,-34.85406813360645,-33.561537656770355,-33.186921296987784,-32.66697112427498,-35.91242326958034,-32.305508772645105,-32.15471612524627,-32.36248595567864,-31.10758801646043
-40.7241824222225,-40.55502703453355,-39.46283099260723,-36.320677102187545,-35.58379865865113,-38.05579031167381,-36.13683108613702,-35.65236826502776,-37.765655220162095,-36.86399223653744,-40.162793931572956,-35.05890231626268,-37.778436040807264,-37.72689170896679
-43.043493781483164,-42.25523481064411,-43.44225794932503,-46.345997994894475,-43.31418112392842,-44.731299641237094,-43.9242516381376,-42.954174081937445,-44.28598815893704,-42.69053860936733,-45.93650297628055,-43.07044603903422,-45.96595054341499,-38.23232232327409
-44.18033355990763,-47.60848695305659,-41.95999961625931,-44.08139280680531,-45.02471256151005,-41.59286409884912,-43.58304195903177,-45.765452891890696,-48.5294957416689,-41.479040102647936,-44.20870028173431,-44.784737338633484,-43.275422523870645,-43.96543257601803
-39.288587739616894,-39.914346556778426,-42.81768800019484,-39.217121134561,-38.68174977381479,-38.77869938272335,-41.310845807869626,-40.18456092312716,-40.84989146651603,-44.03174792646522,-38.80322906157895,-40.57244150425085,-39.52610934068712,-40.30139259161702
-29.14681264762808,-31.934174978434523,-33.02916054951274,-36.743463301848664,-32.321243327190196,-35.102753096979605,-29.813185637017245,-30.676459747251776,-31.404061554802016,-31.63703399441479,-30.656775620360207,-34.86835242947562,-30.164979074645927,-32.67916807780148
-20.35529089325199,-25.274022042345486,-19.71508778614758,-22.14060596038909,-19.312330620527543,-23.377106703592638,-22.33009855541515,-22.994318805077505,-20.359805912724656,-25.543710872606713,-21.71995587341423,-20.28766308743059,-20.6803574530495,-21.663316763141193
-8.114057922503704,-6.064535978824796,-7.130910427019993,-8.2644661141331,-10.661970174863637,-9.176829481018418,-6.932506777536149,-6.9302321159171125,-9.736089946591772,-10.435815813223329,-9.572757892603015,-11.245080588520267,-5.445097965653382,-5.398343948869423
8.56651269064632,10.732252088979953,7.440580352191463,7.901635154168013,4.102100212172955,7.170802131436856,11.8734170134393,8.835526080366572,5.0833589223532325,8.431638341384813,7.454244582642876,7.025506339007594,7.233982885329509,6.977684333839241
21.004973737407088,20.050775883438448,21.03901821069992,19.226282001490368,21.79989721322203,16.898391499208945,21.004542489860693,23.36460286105292,23.240899326738877,20.003352097081724,20.182777117435485,21.733961715406707,18.90808193633206,17.64090493943756
34.386554393689124,34.6572078833188,32.91085478825845,29.547140535882907,33.464291019724406,33.19753179722225,30.913556912670405,33.71707198435215,32.797814155619605,32.99252506234323,34.11604095205753,31.708919624003208,32.64517413557292,32.57991017836553
37.55687270185821,40.92158304767352,42.34661417019774,37.57365999778645,37.923323199094185,45.03966328205063,40.62174454324271,40.34622349901437,43.94514485276214,38.93180844623497,35.38701046376444,39.44745784137405,39.374785184732474,38.29090424322834
43.983519545541014,45.76422638749209,40.09408814260397,38.62744039478192,41.01068377844607,41.950040805373064,41.895087464122824,43.67390019444126,46.20414223944231,42.84326814689398,42.94504813940374,43.188463331449825,45.97917088698205,41.8757827443873
41.44970438771853,44.169998597154134,44.023464709648195,41.55368097897956,41.73926222465242,43.86317917849819,44.089278762799346,44.594024346508796,42.950056639446814,43.27288413282122,43.48706449197822,42.882693586325296,39.67901788225211,40.86569351610334
39.709956172640794,40.030558443474035,35.90236291412668,37.157102617060794,38.94518247172819,37.02537251370139,38.40788853240294,39.648873648407736,40.847312934591606,44.17917680162866,39.66267991668797,40.71876772401103,42.019082668579685,40.18925164302197
36.02892211061767,33.82380776789586,31.022164057983623,32.646940802129855,34.59333160302019,29.769539894354576,34.367822292306684,31.231021290435237,32.6503117459709,35.65698231667355,35.9709737852172,34.66282594698727,32.84204968349476,30.51317928711669
27.22538699531851,26.780978680370165,26.390514494367928,28.979534146908414,29.406510953543403,26.88794507178588,24.699359523494085,23.8436022932833,26.08901500682686,26.652978439376366,27.37028495793874,25.092976328688373,26.736568170443068,29.469160387810636
19.7261925692214,17.831910434660326,19.967824609579775,18.678270158109758,21.887513437633938,21.30351503950314,19.80725218609509,16.78484651770775,19.59607731330548,20.719007440641185,18.883463762327622,19.150776952949222,19.009368203910984,21.74841555048322
10.200124379389695,11.56791028355501,9.637002332949825,15.300782377314334,10.561779911625074,12.700394029852665,12.314846531968103,15.024932415994574,13.684350011280074,12.247087411423662,13.386338236123555,14.689708663332336,15.340555868333,13.764149272080724
4.93069514225389,5.6697806055505,7.140500885692227,5.795500848099792,7.136638776509114,6.52075266819083,4.608458043385928,5.661046332533261,7.765212551353602,4.215909166744318,4.037172572080545,9.468091029729392,8.950094462862092,8.94195899604979
0.7151885711958937,3.9360316526400414,1.1685258631858824,2.5248085817873744,-0.5424688293236848,3.525552398067538,2.256792277948778,4.529098047626734,2.3201109270046496,3.898755578955899,3.531364739375899,0.5404496688821505,0.8046383260679902,1.062569491716637
-4.63085286158821,-5.890700907810182,-2.562345361172061,-1.6215425908461765,-2.597397601081523,-4.331295969039445,-0.7993374940598255,-3.252583682858825,-1.9483675966509693,-1.1659072396624661,-2.300578623320941,-0.965572406470474,-0.8597356548816926,-3.272500996567274
-9.829623490203753,-8.163973551839714,-10.186470511717287,-9.31055946617039,-12.281502598381396,-6.918738689131531,-8.713621702980614,-7.305440557200817,-7.68903449585946,-10.575275703509286,-10.138074887010616,-11.173073919364889,-9.198240459264973,-5.622504666161333
-16.64895897224332,-12.495586419810088,-19.759428681108222,-16.132095369003387,-14.111413794105626,-11.677865779376956,-19.282365614784162,-12.128557248917582,-13.41825193723983,-14.909115859297376,-16.11426380240711,-13.32894275449586,-13.518155546811236,-18.439139748596897
-20.693659715047506,-21.062562994231865,-20.978116685388795,-19.71005908994825,-26.271228176686414,-20.05776496506554,-21.961243435604032,-24.598151636808083,-23.472258548894033,-23.491413743203523,-21.855481797377774,-19.944475049274338,-22.595626621396327,-24.47322230325918
-28.827772767754727,-27.76243863367899,-29.79932287891956,-28.36996327533252,-32.347818951237464,-27.98055925254569,-28.509148860127674,-28.421433806540037,-26.251986704191857,-32.249736166653086,-26.191348770649558,-28.016543860508776,-27.246148386324585,-31.0350924421557
-38.79653741927938,-35.41593419618377,-37.87699524428758,-37.480352156304654,-40.08096867126479,-36.91022866117068,-38.43245402389127,-34.556468376761934,-33.21939298588326,-35.073111138205896,-39.75521292838896,-34.95361862071299,-37.4069665229958,-35.774212106382045
-39.38780381626705,-42.66443699926761,-42.24852571204454,-42.6390341956928,-41.86699308161195,-41.73994143987453,-38.10443424191822,-38.87974235503982,-37.802944655928385,-39.52755810761285,-40.34634960820508,-40.68055762117019,-44.78909694982601,-41.31868323798562
-45.747516104882834,-41.690500287510616,-47.36016716465209,-44.677659077687274,-41.840782927160696,-43.63642874253317,-42.196244649422695,-41.29431310846681,-42.50466408083942,-41.40395181358422,-43.91772913837347,-46.024329572391025,-44.794820198639684,-41.455547855513394
-43.324884239064886,-44.262084971254275,-42.89395157944629,-41.63297962920353,-41.22887008411744,-45.598772348550554,-43.0654489880569,-42.45024363348115,-42.169150122985776,-43.52557177384678,-43.20899249176108,-42.70823820843664,-41.57755896337673,-41.027055474804
-36.60709568129989,-35.45449779905259,-36.834075485117296,-35.38382239558406,-35.36993991840672,-37.26820776795201,-37.737471608925944,-35.288878872841735,-38.23679365300025,-39.032780966179494,-35.375584975137265,-41.81787867957713,-38.05366863663803,-40.58613716298741
-25.045173364307956,-29.782992836234133,-29.227158993442345,-27.205562455299756,-26.768249635118092,-31.825305842832353,-26.478209141386813,-29.074730922428856,-27.649160362549335,-28.460564354521683,-29.934346451219437,-27.036758546050425,-28.861688845721172,-26.423550672259204
-16.11324248130174,-17.911096014767168,-18.057021494598782,-17.427294340086842,-16.825022362005626,-15.755353560574417,-15.294729669224074,-16.06637408071205,-18.563251015791327,-16.333325514232367,-17.54753564814066,-16.24727632041855,-13.027705989052155,-18.974696622050924
0.03355775972290376,0.8858519974702921,-1.6898837968516083,0.09656267528050555,0.634218870577069,-1.8305759598498985,-3.919047509758494,-0.8080020002005337,-5.303345884984179,2.5368028117102233,-2.7646131474939177,-2.550064885331791,3.1141220585864113,-2.0760286136664465
14.38033796601756,12.800322137593833,12.158513752817342,9.541060848031515,9.560858407673688,11.716247734156793,11.969698271269495,11.500325757208092,13.68125608278084,13.663205747486296,14.638513606759156,13.837354036645515,10.704723835969427,13.105910751101513
27.45393056558876,24.180835289870423,27.073181698867618,23.375487181098265,24.27753466816786,23.777381789806263,25.46521117347606,23.975894529000477,23.214801593371728,25.58655781030393,25.496074688290573,23.04090185289019,27.079633299636807,27.7180494739157
36.04184472626745,35.48338814085918,34.46748131915003,34.518984352809674,37.81049040575115,37.839752764889354,33.95036798127501,35.520370020740636,37.69217554861565,34.50116199059887,35.61233850362243,34.29940378179055,37.492685272200795,38.14916579633633
38.52121083720465,44.326406405507434,45.43243692948895,41.25983932075114,41.232699026637306,37.77778397494495,39.85496696686361,40.234062041952214,40.63582686766647,40.615803497309315,43.3486605531814,44.92747928078879,44.58673230871444,42.968141196378504
47.25975189464753,47.57767109420582,45.0424656501116,44.10624797318776,45.77814976896339,44.20881404971225,46.965506470209235,46.45325421489949,48.30480283063151,44.47095874388197,43.8199659945182,44.44914048825938,44.50152706099108,42.16044341243509
42.255255859057236,41.8179496053867,45.240210248326925,47.470936230273004,42.165110259268836,42.12968119306107,40.26984684127609,40.43261766185838,42.16691886527374,40.55673093890511,42.27806593623101,40.58282412541727,42.79605087036777,43.54722419541803
37.6022458958742,35.882039750006136,37.631902066865244,36.06245336853255,34.90429649055336,37.42632421691017,34.72585436721609,38.32470343853727,38.55521882014447,36.938357869130876,40.27510821775842,38.46634884898727,37.30830214648558,37.498221372777884
30.54611490328857,33.75878620267585,28.99054601925287,28.232691542537133,31.82819946552207,31.43717985150321,30.16229795465668,28.045009387313595,33.5139147343194,29.97639614916214,33.32888498533307,31.467258088870853,32.48802055416227,29.320990247772595
24.620770076976676,21.36264405867682,22.100938089708723,25.680602055223115,22.6982176956566,21.657451238919222,19.55371156931972,22.318382920861648,23.883325480228475,22.350421923733094,24.440443246763067,23.205119334621465,24.361499566197494,22.61306590171055
14.438331737062288,20.997684090227935,17.07278019604621,16.983548526287823,15.976446676337497,17.786979436199672,18.28709591713159,14.629849802327815,20.262397788484428,18.284457037680305,18.857497381901172,17.193260159449128,13.090969414606207,17.432693586171002
13.332368650835967,6.141371937145729,7.190320109465882,11.42226070645869,10.764738498477303,8.294239503048754,8.8274750943089,12.138386251288736,9.467976814444139,5.505263366908934,9.148222617014143,9.724496670418423,11.462311298629217,7.024000139673906
5.767269840371395,5.195912065075488,6.293962111030138,2.644333275636079,6.9059578599147695,2.112985531129393,5.979678166102665,3.509662736175434,1.932272191416713,3.119407679889261,3.56420475909377,4.037750377894155,7.5378017589037665,7.358199887393317
-2.6031083756543456,1.6495699394509487,-1.0466682110564485,-1.0150669407025124,2.4114703636036205,-1.3239013673407733,-1.714204699375598,0.29485343962017724,-3.183470658330596,0.22489643894839711,0.9287240645995114,0.16626797658787124,-0.7957646220412258,-1.5916802635227927
-8.678319588613013,-6.00440050143202,-2.5840587832507764,-5.284650041578694,-7.2065368235641,-7.088725036326477,-8.457536187591334,-4.6783175835750646,-2.1023133191590064,-5.008186594813378,-3.3414313663060478,-6.521213033650846,-7.541675026412514,-5.129356524054024
-11.314743277620158,-11.564416710040446,-11.283055710891642,-10.502717951621353,-10.659718935736601,-12.179811549628546,-11.993536295125175,-8.34638709452434,-7.8784915601796035,-10.38019721683624,-13.653237776568833,-14.87229305273182,-11.578499999560233,-13.228854871751178
-15.28628594081523,-15.580888142533034,-14.75241746245053,-17.191954546788928,-18.46203722014641,-19.679316712425504,-17.34809286823499,-16.81505319237992,-16.7271957901462,-19.98651369066958,-18.129544257854167,-20.140140626995553,-16.611392102784382,-18.743891119406804
-22.82001712587015,-23.856252895260138,-22.63003050387152,-22.090272132475825,-26.800429110314862,-22.69215733846728,-23.519402131212882,-26.46968359667056,-24.34745375961247,-21.918511651241353,-25.611678311867855,-25.91742852991569,-22.182330495209317,-22.473709662296606
-29.146818489841817,-31.329025755458176,-30.8722548879696,-32.35574908548981,-33.49749983532256,-31.337434920839755,-35.74136836515104,-30.557390722022234,-31.5538662801754,-31.353813908907455,-34.583503175343715,-36.251327605067,-30.712800236836642,-28.033288382917224
-42.155007594551336,-36.97269849494083,-42.36473019829752,-37.63889116368033,-36.172698967130586,-40.957617944987,-40.38442383832006,-37.30067707544337,-39.59718290989392,-35.924463878454546,-39.64244279887279,-39.57660505173251,-37.65925465444896,-38.281575098895324
-39.24487235331313,-39.244761320252,-41.70818924683034,-44.35758021710502,-42.22821175530336,-42.04105482896748,-42.48765180303905,-41.94092124333228,-44.499444098463286,-43.151971171366654,-43.66544280142885,-41.1203534995914,-42.625686390376316,-39.67029414914522
-46.3408685374783,-44.52157975078633,-47.06470580696962,-44.666398540334534,-46.69683322927942,-41.952979569977565,-43.93262439484165,-43.165514836491106,-44.53640099499242,-43.0614173323013,-43.61613291481561,-45.196268911661335,-45.188002870599995,-45.360700071340645
-44.53608294136874,-41.13885661149687,-40.49479928277089,-40.933124743792625,-39.81212343279838,-40.005645332238615,-45.13094049653406,-41.047356595875165,-44.15378000224548,-42.13368709872744,-40.3716259652915,-41.1921585328476,-40.977323690390335,-42.818720327079156
-35.2195671865157,-33.794746132938414,-34.494472040316175,-33.69015933666758,-34.66239668277877,-36.54670722455165,-32.32765481807502,-32.5249593358433,-36.887077995431824,-35.78805716028589,-35.01142387550599,-32.81540746173152,-36.26311583926896,-37.319937170258726
-23.464981080082048,-21.414885381823627,-26.664207469055928,-23.85010897282921,-24.696336367708465,-24.04711957403612,-23.718143305417176,-24.795473197904638,-26.649352250604096,-24.123721781291582,-26.573668905173534,-23.570851852052336,-23.505737312435297,-22.518224777852897
-14.316698536838556,-14.17895629986459,-8.615028800665321,-12.130460269022779,-15.593126477496945,-11.34645445907335,-10.80141135069522,-9.293494490455009,-10.832521791899772,-12.556584496274981,-14.002502149325613,-11.757571005091767,-8.808051800063506,-11.962820763376909
2.0079646156452813,3.181998673741868,1.9394338645368387,1.9426557957863904,5.657612687091008,3.006116870439704,4.394989646876883,4.03395521285478,7.762603002686648,-3.945408207742515,4.262810742102506,3.872973855892063,1.9696161029255546,5.904156203142589
16.492235473417804,16.62155186345348,21.28696122238979,19.2481439255096,20.33953389047747,19.43282615816276,18.536154799948747,16.71996768776506,19.498488621227807,18.95709946507992,19.734641505907426,14.365812332208602,24.466870895394877,18.265491467778382
29.72008459606441,30.54030686513553,26.68772130976363,29.952473389792736,30.757432380108444,29.011476087919313,29.71053231321816,32.397400716459174,28.17184860352835,28.542492182065004,30.014931006596992,27.878343918345603,28.141199573377527,30.56609463921944
36.13834723399764,39.660698099513034,37.08469228579146,41.789362835601594,39.93089372501228,38.08234791474492,40.3426169813209,38.8822013251674,42.67675395299476,43.93457775052463,41.579591943356256,37.745341846986605,38.97214301136164,39.94432202962611
45.729076258276166,44.46904261402859,42.179477633986124,44.67999370318606,43.44860711031679,46.935140858767575,40.713536170849,42.39611224536248,42.97591286782898,45.52072077290083,47.356835760478674,43.37032670917685,43.93800565136297,45.96132926576416
42.58662319662981,45.58522166076579,44.380396574148726,46.08230665041764,42.05964529342719,43.937116769288096,45.25236922336016,44.299367537740494,46.45209032477203,42.72917892021776,45.12321092255016,46.50665351253098,41.26300121359349,42.55154515840485
42.14239165104887,38.87859294790533,39.23062085924344,40.2517032037807,40.038434516009914,40.910051618764136,40.54515621924046,38.48143620857597,40.14891107672164,37.64023484046515,39.32113428600803,44.105329459506024,37.599044858215436,38.78505453600759
29.33905660566134,35.33495149687384,32.31171196387291,34.68253792186936,38.471468799938215,33.10915027162481,38.39851750139777,35.70044219325826,38.34300407581087,34.02690020713933,30.475063668633144,34.35822095292426,35.61797688416933,34.657903810445816
29.04786902926258,25.675878469542507,27.283141744332504,29.76000511828577,27.169194474284307,28.761365854334066,30.427788851458146,26.44338358856914,22.61179109718373,31.549905184524498,28.70064548658531,29.265052283207254,28.374989445636988,29.14077792484994
19.963989267344907,20.84729667802607,22.045933649885495,17.249676184037092,24.04667558762953,17.74313208614782,22.11574085077116,19.925425002682324,17.368348216400648,22.18537610294878,23.66534199067246,18.543871703389783,21.24083265053864,25.758337988643984
12.96050871570913,15.999053443043834,10.701916324814057,11.323623076691527,15.193922864555615,11.699310205764634,14.76070281216589,17.292632220348924,13.473727605161686,10.626551392796586,13.470610090069034,14.085610212162296,11.371141107712669,12.904087821725795
10.391081595403834,9.739347083979325,8.997926173185109,5.768628177621473,8.593309548299812,5.857836672500064,6.6585437631467865,8.412396892752367,6.732041315739518,10.88050923148458,6.817443692026186,7.0348805204295,9.620254743186987,5.870825383540027
2.7408414944145645,1.9448578220890713,4.316265254679551,3.583940013134104,1.9139241501555722,4.319384557230257,2.880431295175734,2.4832596571498273,0.27000069319600906,3.7936515531291306,4.1362436072088755,1.023627705524955,3.1004888239863027,0.06211120656115643
0.14526442833403186,-1.846216452102723,-3.1632232647654557,-5.921904544608439,-0.7691637738784252,-4.559901070934231,-3.18993053777733,-4.36162240945011,-1.0471757394017938,-6.0548061742748835,-2.4567751242054814,-1.3821643038251294,-3.342023007523453,-1.2393584400239086
-8.816665700572235,-8.23280353483622,-6.075395519443953,-5.511048756266163,-9.410034732746405,-4.305944090599965,-8.060656928571376,-6.563941282678714,-8.842516111399728,-7.168719612395847,-8.942733343419958,-7.732562518903533,-4.342724972124472,-4.285878261643671
-14.114176418993038,-16.169032352226434,-13.545498624561864,-14.349641206585309,-15.457755296704699,-14.858020878678387,-18.142744678293468,-13.43354296302774,-12.615051101183163,-11.10171424762834,-12.33608038541671,-16.14341264128894,-11.927870113596278,-17.779093903503878
-22.35228720893435,-23.704471149410022,-19.921940374736813,-17.09942985554495,-21.167287155818002,-19.6405691106225,-21.773151820649698,-21.93099296422459,-20.438404429564812,-19.61490701880995,-21.05184805811498,-23.844388078454436,-18.34646810408185,-20.16699399651348
-27.852911634739584,-24.57116361302503,-29.78669904092482,-27.009041283242553,-26.672877577548327,-25.22123353807438,-32.21708560403667,-29.899865881377742,-23.764344297120104,-27.93012404615206,-25.363029408066062,-27.291249665376313,-24.355875232009602,-26.66273730938935
-34.44429551115274,-38.56147906074205,-33.5655041257334,-34.583448707522,-36.45126002137728,-36.418412981397395,-34.76285879630144,-34.44171200578361,-34.22315379751521,-34.33512391642024,-33.168080167737145,-34.77838046727669,-34.209170503781046,-35.55511948980514
-36.998289300322114,-43.07493347766284,-40.773057513059214,-38.57041185534507,-40.732444126933984,-41.81314784679839,-38.41507078456065,-38.22268358598578,-42.98976118921174,-38.31752903420258,-39.67618790790453,-41.51811757115423,-43.1976753947763,-42.13027777601726
-45.28305380289735,-45.18109278056303,-45.49293264472055,-42.20608263811332,-39.01607828507587,-43.38169009077261,-44.543359731228854,-42.37356177271773,-46.551604414064954,-46.05921534221643,-45.403882779859984,-45.92982751089362,-40.50061306380041,-42.42013301882655
-46.389707337485106,-43.8329483610661,-41.316971583839354,-44.81772618300507,-45.19220475702785,-41.56539689598443,-42.836306266489785,-43.86927817584441,-41.31509898937624,-44.25187448652696,-44.72729899680787,-41.26027075614686,-40.88064912181151,-40.94822898561655
-38.503074909569605,-43.34716785797687,-38.963204486715135,-39.37866547447264,-41.72645654176259,-37.776439738397556,-39.38153730626404,-35.90639996750158,-39.41165130765932,-41.58163993220053,-35.40392789313222,-38.19015859574862,-35.16349812285755,-42.21762313497502
-29.658626360110834,-32.93193725102174,-31.032283717707145,-32.452898964755974,-28.724642649333017,-28.29949946002817,-30.998862353528263,-29.65175106358801,-33.99149313264459,-27.712838596048783,-32.350796702390916,-28.109851086781113,-33.61278844513598,-31.046219213481017
-15.949440805171808,-17.871555399086247,-15.997624356329641,-18.22329185395107,-20.279312951203973,-18.516962548541265,-22.20321380257145,-20.29266374031031,-17.737784232923484,-22.6005661000647,-18.33721054613155,-20.216084723918918,-17.584925834905004,-19.059666381972775
-4.624928999395235,-5.030714200492307,-5.940924783154817,-3.045373563532812,-3.6871628112856873,-3.7816423838475934,-4.9313248517622075,-3.203264957230272,-6.540046514312523,-10.751309763506317,-5.0332114241790284,-2.925746228277784,-5.2665378259820885,-4.195011571692752
9.350611483716877,13.841558014050639,12.196025804755745,10.34439629658106,5.863646745577778,9.10665569434733,9.347229448444772,7.903461905307614,7.927803112087259,11.938676741926896,11.92715832220772,12.695014959280849,11.717885775067437,8.838485923680164
20.65554745777601,23.458161642313136,26.67566271860813,23.178423205363586,22.19331017425739,25.22760206228463,20.49147745322851,27.481564944535055,23.062044404883228,20.11342291663266,21.59651544345232,23.205444982517502,22.32294775197359,25.851498269522786
35.117095440069896,34.36604313660756,36.21922739823905,31.675181454403635,36.374671173587004,34.469348784235386,33.48253300496847,33.10233193695644,34.89575518096651,33.56224811163351,36.902739219745534,34.35067193217711,35.92534698158957,35.131030729346826
39.16928388930604,39.95000016695909,42.814681541857695,38.977462369577864,43.29278229294264,41.587029554737114,39.73578445047378,42.22854914919455,41.95400831969283,41.03550159160761,41.859464822169194,42.827360115343424,38.129343775858814,42.71582159867217
43.84477870074672,45.50711284311202,40.87585852635119,42.786985500718515,49.85863921141247,43.816399080854005,43.960606740218225,42.947345264856295,45.104481593085936,47.28870950940782,42.61334003293539,43.09979975637055,42.88558118680167,43.40533012289981
40.39099334483933,44.899988265478896,45.73378566657567,40.6542281460368,41.78820435082677,43.099050845796825,40.23516669657405,41.082395592510515,40.887964952369344,44.28088898297231,43.28888030242492,40.16263335166153,43.58020807145731,39.63819124741717
40.75024786277835,37.80001913954646,37.03507009809037,34.374961455773324,38.610047230790975,38.6571265904641,39.812943067271476,37.6874937028989,38.98905689290758,39.9922888941471,39.82399531377379,39.29459615410599,37.88607918630234,37.291236224654845
32.94609167032258,30.49789695308639,28.638525437185606,32.710533768420696,32.56179012537532,32.91094275854797,32.87281267497882,34.25438359351351,30.71637547473288,29.882925476246392,31.96575464101147,32.815568964838114,32.45608239218076,32.49673424974531
24.924624805403795,27.148923004878178,25.311905262880085,22.91285359819458,26.06786731027648,24.247634460169436,24.867282843451342,22.71356785979459,23.086812994857034,21.8260313810908,26.077379831728983,22.527404110016647,27.312313820985125,25.582782828668687
18.685021099049266,16.685431306373125,19.38103927444662,16.058163247418914,19.176730081338516,16.415986985580524,18.54445085714665,15.381743245182737,21.117645618598623,19.229673731660277,19.905639624930146,19.661797552829505,13.211553323196362,15.247869015479619
10.36240061756162,13.171823199543537,10.933095633015668,13.008690857888185,9.317176734643898,13.253322088517836,10.83827097048651,13.204901920792322,14.34651333612559,12.480644248628288,12.24210692986755,7.725967902583179,11.862844588932322,11.531186427388164
7.72708879742238,5.522968957248186,3.5401031623563304,6.1045823767575955,6.650056855610359,5.739254138255457,4.40603168984075,4.759273226614139,4.494127181575705,5.432217279515508,6.354478943841464,4.211219780970194,3.84872060041168,6.419426635648053
-2.6420462127294355,2.1431419771027325,-0.8129671749653351,-0.9114466580801344,-1.6263832467848125,1.1783594423260717,1.466843457692677,-4.056367632137265,0.008894493583030072,-0.7419416898179008,1.8784996123773758,0.9409867024771569,0.21276992474436335,0.9737553987260624
-1.3571521425809911,-4.534853175435169,-1.1446396630712128,-7.60837312331372,-4.028329582052652,-2.6330141608501183,-2.2785410035966454,-7.627409125261944,-2.149866228388931,-5.337027325814973,-2.8889061186714438,-3.759186153764124,-3.727063380205178,-5.181806539522672
-7.464074930314836,-7.775772794670227,-7.341886827822654,-13.4691140974676,-9.615820045592486,-8.882980558010829,-11.641222745767354,-6.178796237504606,-12.282674828819186,-8.788492375789904,-11.38233869838003,-10.724353749361445,-11.418763698242236,-13.230172719759192
-15.388151903850199,-17.846352052960075,-18.510876666627095,-17.052992956786017,-19.686769404928093,-17.01093713679839,-10.810312800491886,-15.357178040683397,-17.837598615045714,-17.165408679331147,-17.157833012394534,-13.335042122576409,-17.577268258961762,-13.987030532733241
-24.581735947221173,-23.781371393916885,-21.049500143685563,-26.52259606713736,-27.197344633825686,-25.26340548178857,-26.769431106987383,-25.565168637897973,-23.408765155543822,-20.98517664025371,-25.92932182607124,-23.517640331837033,-22.929637988096175,-17.912297586453462
-27.702651701238842,-31.747247495035147,-32.815478506910324,-29.68152428780058,-28.535600249903997,-31.75677377906871,-29.88088189810853,-26.772951799170194,-30.559809591362217,-27.46861638178295,-33.25667196065177,-27.600037250520042,-30.125049956285668,-33.059213652615206
-33.49608610885491,-36.59600629438784,-41.436901811923846,-34.99326651100659,-36.06082545601804,-36.06252837046497,-34.299286287825495,-37.985325935837224,-37.30809024807359,-33.19579658350357,-39.72284693896268,-34.83738155876323,-34.019809828175966,-37.43601007437948
-44.03149104166071,-44.066190115694454,-42.324914246043434,-43.83145578081796,-41.05761632169431,-42.39145720249524,-41.58581935199361,-40.198396485738016,-45.1627914636238,-45.59010840483614,-38.40085932814625,-41.39600158454725,-44.53666356400884,-41.77063264621597
-47.49991657377148,-47.06520494954994,-42.07029870142905,-45.20939420169812,-40.9499642587335,-44.77889119055003,-46.174879444617154,-43.52912046321469,-43.18664086487059,-43.006822857782204,-47.11761464691289,-47.162191450870395,-46.49760790538918,-45.05761146667269
-42.95733350241972,-43.084287875483575,-41.99723445778586,-44.77906841546201,-41.79534110812615,-44.846225773656656,-38.927710899890634,-41.02114488541829,-39.84300319932009,-44.29152236066274,-42.7393287660186,-41.81624797293738,-41.180923483326325,-43.262739361902106
-36.468969829716364,-35.323666514332395,-32.79294152224109,-34.38497591999997,-33.995201923203965,-37.12982288866585,-34.61184387344488,-36.45242278185827,-36.15385289388815,-37.73438350544745,-40.01664762578581,-33.13239761304833,-37.011320329423945,-36.4483623486584
-28.76899716186462,-27.57013098193146,-26.05637817819457,-24.271631300830048,-28.585640464492815,-24.934631450940277,-23.622794052015188,-26.072461674067963,-26.027427572254243,-25.561981965430178,-25.215465724967192,-26.936584556517648,-24.062595328446,-29.35384215274568
-14.815997317583438,-14.61410216058702,-7.155305691188409,-13.010160720302665,-14.04174595442739,-14.434949475106254,-14.682424584493797,-8.434676213020506,-12.158053876957434,-9.688477223268414,-12.754699495437233,-11.164745925561956,-9.763074972169129,-13.026193167988044
1.7349571187997237,-0.10544510290914744,3.1732988078499718,2.321979982770159,3.567002952726357,-0.879597487082304,4.766539483184536,4.735919026689271,3.9956246017731116,2.9686992372786936,1.8723212154983855,1.251082880209949,-0.059847604792431675,-1.3697610265615061
17.558301341289276,16.507752377178452,13.940746322404465,12.912446976026606,18.477972753851425,13.987835507889002,18.286354362908096,16.045386712580974,14.846077835866431,15.446380425113066,15.484479333468176,15.539863467253792,14.026117992400502,16.47528409310072
31.7238775848289,27.966308973714384,30.23938544925382,28.430921062646544,30.511841039595538,30.756918671529128,26.827253666053597,28.687462202712695,28.688133154422466,29.18891715108541,27.78832721865226,29.703931542877054,28.6254102337219,28.117769373975655
36.75498962613982,35.846451252097374,41.1322492465317,39.65239855866092,36.69930270660392,36.0717185502703,35.90538404848252,38.73346717758976,39.588725227033464,35.80128374637557,35.944338665338,35.49895787547579,36.69535173033827,37.89197362456422
41.915575909645156,41.579425241070616,43.306238553731646,43.569528492424645,46.72571538789099,41.35459104597449,40.43719315216131,41.75314626675566,42.90180092975795,41.605974364465354,45.809861639234825,45.687710733766124,42.4189495458823,41.10549073077013
42.523577954516945,43.217983067472375,41.21554078953541,45.289441326543944,44.00180830048843,44.672619157138215,43.771797907245045,46.766225467430516,40.83118750343577,42.89427668152759,46.42276361184699,47.83246763494986,40.12670453286014,47.19536457134697
44.472752900000714,39.47642243445399,40.94496681020126,38.50314887116152,40.54372521086798,42.321810076453744,37.31074714024061,39.83878447497999,43.191636750702536,39.63169679729486,41.86438271783679,42.17902881935726,43.76394600442163,39.86007071563363
38.318725537809065,38.61539400970457,36.52715167583047,36.4879406028294,37.00907716355899,38.337628678226686,36.215691766952745,36.07294793663589,36.95881981896935,34.23534674156441,36.09676533357752,35.74853177529062,34.60960937043974,35.78727032210384
29.657060635615128,28.613128919016475,27.236498158140975,29.27414082445214,29.40392638243683,27.528729266939617,29.90931888695917,28.662935474831343,28.420220600839684,33.21622925963797,29.402587833950584,32.9683841915691,27.782112225380423,25.939983781534973
22.68278648170372,23.275197715046236,20.67900597366923,19.951687988757325,24.37911816283713,23.356395089068933,17.694962044292488,19.544589059273367,19.69071367410979,22.467706265082874,16.693309121486777,22.382611695107023,22.848235704367102,23.949129241789045
17.515993211765046,14.69125003049808,13.49599653263398,17.565625155598067,10.694164680916503,17.424786757896776,11.933662443578562,17.431140689584552,16.159040517481905,15.027900193724664,16.236463552613014,16.125846750454027,15.13000792346697,13.606459636841256
8.225770219042776,4.473969431844019,8.71860155433665,6.540972714333579,8.92009135149659,8.913923925879685,5.945132017264461,7.038150925453932,8.321202985889755,6.300134694247207,9.151510599475714,5.245320788381294,5.60286062387531,8.454421314312315
1.4945879667533413,3.433995936426692,3.862679449225694,3.0819426688442872,2.989460935324405,1.2935253940279123,0.7834678161269872,4.340703883644988,2.221327430331404,1.3924728056608355,5.746427291536533,2.740889118901091,-1.5689782419736327,2.2419612531751083
-3.443344084850035,-2.332963970755858,0.24146726891666637,-3.7130458313645898,-5.027743637161368,-3.262624647552342,-0.9745889664921574,-1.1627034689456635,-2.5589702179455642,-0.17431300521272575,-1.1785173190903415,-6.222992144346831,-2.536282887078182,-2.168756018283604
-7.939373372985502,-6.122673217257695,-4.345111039745401,-7.297029840462814,-2.815750389383594,-4.658164933842507,-5.7006527431350635,-2.6093284168256226,-5.452120350949969,-9.313343028695627,-5.744800743961313,-0.8664794003289771,-9.475937516064231,-4.144921071325443
-14.604426317037442,-10.032265071478408,-11.648593990947546,-10.458477480870435,-14.517317980122616,-11.768575730606964,-14.971684497702832,-14.453526021922052,-13.287619495493518,-11.713056498143468,-9.293073654589662,-11.339689798696666,-9.578215546593668,-12.252165651635748
-18.33849553231267,-20.72151952034925,-16.146805383242864,-20.49321220718849,-18.962241362005226,-17.55826109234902,-15.03925484555317,-16.71482487794666,-17.173950608728184,-18.412646967242264,-18.45843573793957,-13.205018275821338,-20.13983180438345,-19.137742556135965
-28.21698382020131,-23.27377844491424,-25.413758367774896,-25.489708381171837,-26.873197005170983,-23.565142697199448,-29.032740974809077,-26.705189725149307,-23.024017073048267,-24.96480608316291,-30.66059654320601,-32.985483278947505,-25.96373710977023,-28.035706932540812
-36.243415288286855,-32.32560357375269,-34.808568399899215,-33.56368780087327,-30.53760082797164,-30.76353006810451,-32.11890577270156,-35.67820084634371,-34.990614844387316,-33.32837732128922,-29.17107022344015,-33.09163357964622,-35.49097042370586,-33.85185157780912
-40.87341586712864,-43.66737018498554,-39.443079235877455,-35.781733560743056,-35.838208229498925,-39.297980335114566,-42.57758702043004,-43.14043156794453,-38.803816015099,-38.10150052199474,-38.94783515742919,-38.885722693148765,-38.47264793447858,-36.655175924291456
-39.11003793902185,-44.54543258307956,-45.29568135410264,-41.41049147361772,-42.82269544422981,-42.056288053638376,-42.66234599673549,-42.033625564276164,-44.627107850795205,-40.15926031542232,-41.90984824428021,-44.847080572266506,-43.11361429944139,-43.878627630456414
-40.32261685153759,-46.04310542206944,-45.31196898182996,-41.22313079978263,-44.329731027640264,-43.86289976817235,-42.02132899198152,-45.54778579555347,-41.06698887304721,-47.49198768773596,-45.936545851529885,-44.2184243714781,-43.1884851783679,-45.89790337057088
-42.33813391232404,-40.620047188409835,-36.506526948862216,-40.898897255597205,-40.087165181836305,-38.907599469471876,-35.006019292789354,-38.77157884421591,-37.13936846091112,-40.920933390020544,-41.282474254387495,-39.35615385256883,-40.92312657920682,-40.67556487099747
-38.22358475722582,-30.106301107923493,-35.65910711826538,-33.45438257203253,-34.136945110425856,-30.91997099109268,-31.797752522503014,-31.775162925176645,-31.9961816480595,-28.92941419195385,-31.077895959367208,-32.03591235928467,-33.105454552602,-31.464332904869494
-20.99644700622333,-22.11621473773849,-22.639377059275542,-20.24192049074692,-22.14474345756976,-20.236649097127106,-21.694707043990128,-22.357754893576054,-22.809376627975112,-19.253025376711832,-18.31413281161193,-17.416492459798235,-20.57766334847819,-21.836746840239712
-2.6774446121683573,-7.614047145043933,-9.64819212300255,-7.014925276706126,-8.76384958373733,-5.104814532203372,-8.753646495726946,-7.569839303161352,-6.002678744089389,-5.287290557257562,-10.982765024836945,-8.575411031515504,-4.543360944225855,-7.49729133587336
6.981694450167487,5.489576291882407,9.508682083512895,7.376501858849872,11.062513142888042,7.344575066242171,5.618192876765295,6.271035573531055,3.5444209888392977,6.040150216131195,11.119947779949323,6.592975315776805,4.613205830945969,4.982668666335448
21.425644335115965,21.26505529753595,17.098879157431952,20.538162835557486,21.550601170393183,21.863296290005742,18.0769958900914,18.48943990146865,21.290962331965158,19.00488778063126,22.507318664043694,20.457358195133835,19.570104833837,17.7316004246037
30.79094738276519,31.10589790858482,33.57633081204772,30.514375006097495,31.268280745551007,34.66054798655432,35.6582149797713,31.935770686394275,34.66267883526067,32.74272950682573,33.175136504003504,36.13068350663411,30.999722748463004,31.716319605829238
39.2864628458153,40.00540897824474,41.525306029515,37.31317896804974,36.483433418988305,39.28597929121614,40.43370604788598,38.14666553674963,40.45953488375852,39.560461263563894,38.38555027930482,42.39038792673751,38.46150121806285,42.52534665360925
41.908309291399426,42.74905082046251,42.522231018102694,44.4762517793663,44.67373946524885,45.23034213224778,41.408206371318116,43.04728295232481,42.95587058160469,41.119884288484265,43.67432126535835,43.605895104126276,43.9982310624089,43.74482822761341
45.93332743446156,42.727407580520854,44.28129159609115,40.77265337213797,40.924235244713834,40.13048752426936,40.425417175099696,43.974100580752356,42.32851722685565,43.53523206873103,42.1392299477835,42.13232036305464,42.17995079321974,42.360954334980526
36.07523334872863,42.4996017236731,39.49797029628348,37.36664396931874,42.487663653507354,40.06765793914852,38.90277336048093,42.36832845946896,37.89472252349043,40.243174229893185,37.01813204694993,41.47535207307715,38.43158143849508,42.86340933908505
32.56354853096731,32.4601069913725,33.295804381254584,31.76066761039146,35.671316883378154,33.63137680929627,32.736882207039685,31.246453912631935,29.831999113552808,32.057024396669725,30.65230442120044,36.357882468092214,33.76181081206794,33.422057707119954
28.792492652891564,23.397026502207254,24.60516553897765,29.81608285186319,25.90296787515538,26.01323187906145,25.053189999816375,28.521857968786293,27.53623182882964,25.035924848471392,22.900021524153917,22.572175245219935,27.191617390416365,28.483312732838787
19.088371032211334,19.680204358752697,22.453120599842773,20.675006456728344,18.038370911150203,21.182217043904437,18.673357829509822,17.7487267279533,19.649367195164672,20.752076010101703,24.30816190291819,17.637612588761513,21.558490008672443,18.993120718426187
10.77968735069967,13.827043338930567,10.42868854751741,13.177404363975194,12.159042033303114,9.13435444649767,10.660630147248462,11.217273171848964,13.01725879383512,12.06068961291592,9.693711809530786,11.319248598601177,13.16444560880243,14.237052602454657
6.749159130847869,6.198944272545659,7.144493610582512,10.404256729950358,6.096023630023529,5.864803058886466,5.069428610751547,4.469005587947619,6.162084874809824,9.140400685382886,7.526186336348199,6.467074596799389,9.518025395883512,5.018009445110517
-1.002174085965522,0.732087865267428,3.8818539992639303,3.6076988240851544,4.805871472206896,2.2519435290837704,2.941379687631076,1.0047723355887734,0.7119645068504266,5.335629096852151,1.0267539551656433,2.1433650786637886,4.464940792014573,2.268459185666749
-4.784353179929373,-1.7194943845690258,-3.4421747314732385,-4.408676673968859,-2.472848295807691,-4.3507018518296565,-2.2906294540644527,-5.393767939459609,-6.137877992782631,1.7700204614459305,-1.375756186381786,-6.100114320011302,-6.1795695470763325,-1.8863169364894987
-9.237827043103543,-7.5609405645417205,-8.615181908588427,-6.071989729513121,-10.241678679208606,-9.734633863481259,-8.93782214131978,-11.175125193714997,-10.462669486746734,-4.663373591226143,-6.494819207537754,-7.585642134992521,-7.771055567131154,-10.459096455238214
-11.600586544732096,-17.35729395819258,-13.706203399196722,-12.870906354134892,-16.472171453112843,-16.411440727427944,-14.609311324894113,-11.141137092005499,-14.487661674530344,-15.396927725232796,-13.89714465140364,-16.91903782505515,-14.682505998927402,-13.244413295461536
-24.68115840785552,-19.989515829049523,-20.96270557460125,-22.625267894661143,-21.362473219741737,-19.131665580546937,-22.08336443121416,-20.91196792217993,-18.646551484953754,-20.07960841066261,-23.42342378582914,-17.69540310484272,-25.854827335072816,-19.22857983514741
-29.79142571132693,-28.497979414540907,-32.19888043857936,-29.930163124895348,-28.730383114269568,-28.19630009003832,-30.965709495116158,-28.877091474253245,-31.276278764641585,-29.490010369655383,-27.810855096548433,-29.765972016047296,-29.14924111738526,-29.602682854944934
-36.271821361483155,-35.15209051969408,-38.29870482255837,-34.69321822185103,-40.98454011985145,-38.452846291553925,-39.206960751850374,-38.10235874544606,-36.208797883041726,-38.15419671023412,-36.165491951388056,-34.31129749763548,-34.17473633192333,-32.69169523275033
-41.49896720524563,-41.10282575512639,-43.26023566165286,-41.92853411458191,-41.66201460129594,-41.14516288791184,-45.350606291098984,-43.61669855500644,-44.11567370041041,-41.1058178949159,-41.657689457077836,-43.837967882366875,-41.42660784671861,-40.60395308922625
-43.75600345012505,-45.141549204908564,-45.66012248941868,-42.893898001039716,-45.39547117203603,-46.23411414865367,-42.818161120021976,-42.618870161463825,-45.18064180717847,-44.45813450440669,-48.46508737434724,-45.55081301285713,-42.208845539352176,-40.68317521827539
-44.33079127830209,-42.75924080216852,-44.95406360999832,-41.52199124943295,-44.20095570719566,-45.505538558834445,-44.014840394770886,-41.87529643683384,-44.08319482455884,-41.26963009361503,-39.08163059163961,-41.18998985070594,-44.22017371586644,-40.791344057860556
-33.30626065214334,-34.540139509927606,-37.93760561949389,-38.76023497293374,-35.33667605416056,-43.29885425678734,-33.74645160445307,-31.332625062006315,-38.29416643695522,-37.45643949696111,-38.42554614853161,-38.28035190231406,-39.18474668547014,-38.82089593447337
-28.504148565692198,-26.926957108204384,-27.707782878379756,-28.092053576167896,-28.502616188760037,-26.598188422519897,-29.523475989777435,-28.76203019237876,-25.318802225392783,-29.27605365678939,-32.2952682370658,-29.670388866140424,-28.68759212690368,-27.387520836818936
-15.321069414509592,-16.43081923066542,-14.587126966777245,-14.388028173451525,-16.466429467329576,-18.757626609125907,-12.700451058727776,-14.136926524791834,-16.25484354337611,-15.605237836515077,-14.233302155293432,-18.054866546402867,-14.145515851063394,-15.41543285433794
-5.158773777685113,1.073442487381449,-0.6130796651869833,0.9969533835006636,1.7971150270667318,-1.6853524316722261,-1.7114295375611337,-0.6623238388258148,0.7461712792814947,-0.16077284728717056,-2.4400932165507108,-2.6550076059114476,-2.1841891282118744,-1.4089832761151935
12.055356235523648,13.513962234171071,12.467656995706733,14.51969950005263,13.300298477578892,12.919857204624789,15.277938167339771,13.450233177478284,16.284218913744464,13.487037565191343,14.594165313973468,12.318583442582485,12.280056422848421,10.71321430226429
26.27982818431873,26.141734384365684,28.707109716735225,24.064717864984996,27.511337441798123,26.27737036641668,28.18070884033714,24.836573776124073,26.79363170661321,25.817760401382138,26.881776197057906,25.47169490606253,25.831041560125232,29.878446849696843
36.89124036810206,36.56265030220278,36.78695726734667,36.13397525799993,33.736563207164565,34.24006588727663,37.551037914546015,36.82955250775287,37.99396873021052,36.967620426191566,33.02282272952165,33.80668580761484,32.39488705694425,35.374638377328864
43.34421317347255,41.30424261065984,42.22332731533033,44.318479977484024,43.235180506925886,41.20973194370098,40.80677826856125,41.483811182427964,40.54471726572475,40.08386395118498,42.85567998154092,42.014989497588516,38.62060663859477,38.864633661727105
43.297802539675516,42.62970353761942,40.46898327775801,42.55134842242317,44.569160718711224,46.64196005003021,42.29438249695322,44.003325160365925,45.20718858257639,40.82333106938408,42.45781278522246,42.803766351688395,47.904054531401705,45.369017979713384
45.44848062172765,41.46167617791291,42.753411562102485,43.25172277877646,39.60608388584391,42.073173601904685,39.276402199012736,40.602069622130955,44.66986879121895,41.5731167043375,44.043918270265834,42.50380615939597,42.03405523911175,42.2672489338197
39.416652565145554,39.2249645274122,37.52292400417226,36.96891462790881,35.256895481337544,41.91141220851789,38.01506144282966,36.57601277776821,37.80204841264906,35.32327817322962,40.47396837598251,37.85248440032012,35.14981411802824,40.41506683420205
32.42836223105844,31.38564949973879,31.572712921489305,28.788053598276328,34.922770782026305,30.33329552145005,29.580916133430378,33.04474155532594,27.939633550984283,30.995703396790734,28.422386757437643,30.22267100275774,33.072293690237274,30.20329402758798
20.778288656865488,22.172149650179662,21.615556313077057,22.734397492613855,25.418981513189088,22.027487681664034,24.16287488541818,19.444604152491863,27.10412531723428,22.7434494160607,23.21668995485127,22.71036104356765,20.332458803001437,24.816666678077382
15.221883059415116,19.29203817148567,13.984484240367793,15.20132521030749,18.137474611552754,15.726571764104008,15.92691149179047,18.55017112687826,20.054157300456268,16.542129659867825,15.81636232626972,12.941229233158877,17.72561725648196,17.139256724826264
6.688549747184845,7.640329948395816,10.51502654083808,9.67607122824168,9.814631066813524,9.48331199784656,8.831898251739696,5.7892673442313995,11.55344743114105,10.07942728300655,12.892088880060179,10.80625135188326,9.057934477600314,11.94149854551641
2.3074612380022432,3.8766775628640966,4.039437395604693,5.360787449938173,2.175639479101707,7.268015634053351,6.6199651499245515,7.124874375065998,4.756612431483614,4.376546652015626,3.559721846848735,4.040128272960906,2.701339769242609,7.378805479659819
-4.530632760850402,-0.38136006534419775,-0.3635601999078432,-4.341377106557097,-0.558318363922992,-3.193905055375197,-0.025312332306712704,-2.1994508079042108,-2.0929044575096967,0.6078848378498132,-4.709597350208295,-3.823205112750455,0.047320650590952584,-1.7601594126470592
-4.326799285359616,-5.428620009048456,-7.757574875471228,-6.034551374005407,-9.487169727783826,-3.4907081371703113,-6.3662022900309285,-6.712364781997018,-5.780697517656955,-5.6421621502542205,-8.178425965781575,-8.045765275438574,-4.340769091521722,-8.108494401010539
-13.088517222571335,-13.43189353917004,-11.297426179102697,-10.700514317592935,-10.191394040529888,-15.04345591060985,-12.465104489543007,-8.279106821926593,-7.638289422499643,-9.178417814922822,-10.065777807462126,-10.337146169810982,-13.131801981124237,-12.623759164371268
-17.402916404850938,-17.30206181555946,-17.45538992605833,-18.573175951075665,-16.763360056442323,-15.273977778504385,-16.980407778669623,-17.924486669742954,-14.2936864755429,-17.378205555782586,-14.973689916353013,-16.67605585539519,-18.497013802827507,-18.079465801427833
-23.746994899537523,-24.191881592897932,-25.919653117889414,-24.848017750207198,-26.453197976899364,-25.539858256023887,-22.259327759008084,-29.346308788018327,-27.687371821661365,-25.723157778895125,-23.316217173187898,-26.606617372056206,-21.48050954246246,-24.541228783643493
-37.3900548569821,-35.318033706335285,-35.522699824988514,-31.179459943193702,-32.584294486969554,-27.805835217962027,-30.853953390112853,-30.565895571673238,-28.186639177407013,-33.01303036589062,-33.249047372210754,-33.66329794261582,-29.29619452363291,-31.965858342364598
-41.136112624099766,-41.2980253504829,-40.199931285815076,-38.01882806081727,-39.22823329118269,-36.652038841261295,-37.4593424744112,-36.791634617125105,-38.753797956778406,-39.05845412978395,-39.78188899466592,-36.62738440425939,-39.29360167607617,-37.0749123325148
-44.57530464370727,-42.325626447197095,-44.502057784963405,-43.95554845628221,-43.50115113954698,-41.76501390956746,-44.437825640888676,-41.14505460904623,-41.30270878860975,-40.87000957591764,-41.56772467136398,-42.94392070421183,-43.68301089776275,-43.32312881787848
-42.99036159385753,-41.34063022157845,-44.31757902799019,-44.85724908361717,-44.46330382783966,-44.32138828836245,-45.91372260020663,-42.33222630057922,-46.01843490409999,-44.989475821460154,-46.01631257316836,-44.052856237284495,-41.98300031912418,-43.741694394230265
-38.49518392068719,-38.52512205241674,-36.425552721340566,-43.58067066392097,-39.22492139344827,-42.35268001660173,-43.67514199167331,-44.376131548278586,-41.28891824096504,-39.01140550324316,-38.710913745318884,-44.750934426366854,-43.846030714052056,-43.90845338468504
-38.88059476966528,-32.23981417611814,-34.82384693845069,-36.52363535796451,-36.7770661785741,-34.53174920842284,-31.451831402574825,-30.40335772000461,-32.15307542311957,-34.92795920382606,-34.59517340102428,-32.59829840967717,-34.42379164499989,-33.70578206670698
-23.201788401354985,-24.379904624735577,-27.022743805890627,-25.729753158054383,-23.343241160634673,-20.78368239886375,-25.099435938417024,-23.47441449342701,-22.50391613253742,-21.495639710653673,-24.145038168932786,-27.73209315031211,-23.53216187746848,-23.78758820169422
-6.934680274996854,-11.069824735317075,-9.162949507971858,-9.795925294223089,-8.461582023914334,-9.82644324653851,-9.38321469535014,-10.436038895527814,-11.070573645568304,-14.508930951270333,-8.531287502527992,-7.290852507939727,-10.259266651867726,-8.68998598686309
6.247851062889311,5.341701319402036,2.9910771066399446,-0.8539298864697376,5.2143806668709205,5.213734279166747,4.018880657190298,4.183953739052459,3.981292988660067,8.055726834067974,3.8527695510592475,5.034977496782609,5.383339394077926,9.255143276979364
17.458955941471995,17.799392347132578,16.77763911999154,16.04941268948446,19.051384413647092,16.364405301067023,21.58570192052757,19.05441136782373,17.692002913674514,19.671988413464724,15.926947015343327,16.829373425232493,18.148322562559674,21.672900242481127
31.568592654231434,31.77327945681583,31.929977437870924,30.083825274295062,30.996560758772517,30.92606971479096,34.06473938125852,31.0436636092256,35.72588708091899,32.49523996023802,32.19938857951095,31.906428717178702,31.688135471588854,31.91566795692534
38.32275261479302,33.31285532414384,37.96976363847173,36.740722256494145,39.00871676175063,39.34904569984858,38.67372174893257,40.89899082905786,39.186302730863744,40.42480493824147,37.191328690563765,40.792218363852484,38.702196311956456,40.518686272319115
40.52379149298718,46.35841066396492,41.373611800671,42.197102726704486,41.466057886651996,45.059821615508504,41.035434842772744,41.71958689209794,42.48762296677812,44.96314685137508,45.25098634918767,43.76870654494515,42.32633578470206,42.83637079557905
42.96617249989382,46.25075723533854,41.545958998002384,39.8669808783638,45.69936302808671,44.30752543004161,42.86834395311904,44.63000635947629,43.16560366630942,41.464779007111666,45.59413870431157,39.91306996943131,41.16993258612351,43.175450243234664
40.56805708955084,38.6061335341672,41.52464429145321,43.13848410084825,41.686849384451676,38.47978600292818,41.7314240618351,40.16933320187911,38.760855378858224,40.580747772060015,41.55598337859739,39.600526034889384,40.25577774475967,44.621373006057645
35.680168695748975,34.992300348192934,33.924704811555806,34.68302135249019,38.0009764437084,34.5401402615945,36.54643972604745,35.39675612460817,33.765560611392004,34.26558468368071,33.54850620417401,34.359346704357066,33.652300532889946,35.88456742330656
27.773071880330164,23.812712053051094,27.755816967852628,23.378798492518516,26.718451272955686,25.3849663206972,28.738331936439014,28.470281696645255,28.133446918153773,29.93813899093657,28.44184163311746,26.71967384384604,28.99642493346209,25.8347753112246
18.105343210938997,18.49709513473401,20.634594417117803,19.864716601604623,18.027379716045225,17.440512334785332,18.346737837188645,20.376236802938152,20.988912350289674,21.637422360593263,20.168581755957245,18.794833428709165,18.121702209578526,24.410730106808245
13.1958679212827,12.718297630683384,12.184931156856296,11.37993901634998,12.785233895250302,13.1427985020105,14.698522777062193,16.190362541746065,10.585880532630199,13.512977660279839,15.221633299436407,11.648082120445173,15.2295997079535,14.699944529605862
3.377756336404418,6.3467895863001935,5.678825795121377,10.299739281623541,10.21067560407464,7.191201397416266,4.558218857278452,7.081817134972333,5.529902252445,10.66508776025099,8.070856902646387,7.961630405300648,7.894996159950615,5.760798777445286
2.3578308596173354,0.8523542908088053,3.0477870224089414,3.662203955766099,1.901966209028279,2.9647021073784927,1.692392108381472,0.9434522997790977,3.0817881437225996,1.9026129783644494,0.48930170552364305,2.2973321643761286,3.6504887048277843,4.285912981251499
-3.246561366765066,-4.287198140904444,-2.6667334442087105,-5.851518243463454,-0.6947519823038855,-7.7242965396013945,-0.23521787854141474,-0.5810118298441469,-5.610142970346141,-5.908566959536428,-6.707679907039887,-4.33221354563721,-5.823922957218449,-3.3143239795140014
-9.516812722416132,-9.518759815322529,-9.984233581369782,-5.470250626631518,-5.752279974703399,-7.0180822972968215,-11.003298700266045,-10.43895376750401,-8.913215142242537,-9.174020131789533,-6.802067249062067,-5.911226442501551,-7.38719933634263,-6.012408202373564
-12.729709947762954,-15.755480048655752,-14.005418246503435,-15.020107770258065,-14.88674299977808,-11.549257159398579,-13.454568731080117,-13.760508484118494,-14.736664196540492,-15.148418300141483,-12.60281507303053,-13.744385495070844,-12.409732418796942,-16.142515392750138
-20.5352745690282,-23.36354867004466,-21.117628852050952,-17.420787471654563,-17.745757278237416,-20.810783462439158,-21.74883437442415,-23.64800105602128,-21.528136455721484,-19.578428732683086,-20.33757353331031,-24.590390340387057,-20.61322996865664,-23.37019451773293
-28.093509431090617,-30.375980951624964,-27.052046658150182,-26.736264450604914,-31.38992967714528,-24.410881940455077,-26.115570866030396,-27.218723357626537,-30.03971253063157,-27.068049792349708,-24.78180468610535,-30.08777928953319,-25.955536854006336,-28.245901155524248
-35.98037187652737,-36.40679631689095,-34.7902732461296,-34.92769263523224,-35.65491640755614,-33.17669890628291,-35.522394993913935,-33.86199179830192,-37.952899691083886,-34.19327358071126,-36.969717960837,-38.38925400127505,-39.95704169398476,-32.76302129527591
-40.88134579831709,-40.43601670130602,-40.02467916022888,-39.481783434798714,-41.14629901467192,-41.36087499308732,-36.57386155237794,-38.84656644952866,-38.21398998717986,-46.211605185411756,-43.06023036255526,-37.75971377055851,-44.45580839518472,-42.01675706576323
-43.53654643049742,-42.81928561905565,-43.54758603804677,-44.14581166606296,-42.0013184317753,-41.816155264657176,-45.41226670808725,-43.85568917621301,-45.514276955135735,-44.14413568651213,-46.86906352850049,-43.780068709277295,-46.439680385929115,-44.02423029289733
-42.215136388560644,-44.422683657757304,-41.38439005274813,-40.97313894589653,-43.85360418403792,-41.740738491268104,-40.6919193855236,-46.0585710514066,-45.78679174696387,-41.92122719205097,-43.610336839359235,-45.59008597188855,-41.162004411365,-43.96291016696484
-37.16618218742836,-38.27938083019097,-36.81489233750073,-42.140770547445946,-39.04715568968202,-39.17809192929384,-38.534796004262084,-38.12008910225485,-41.077284077069,-39.18642277424542,-38.28919258579581,-38.16545680989549,-37.12625348025882,-40.249523007240086
-24.036023556040075,-31.5696256377384,-31.263938669666373,-30.883274035625966,-30.83851539934323,-29.816263590941816,-26.876831343990485,-28.850803030803416,-30.656712904728384,-29.06939186764438,-28.30494163452675,-32.46403500129843,-32.13596911792441,-30.66092023539502
-18.08839232313627,-19.20732462546975,-16.887487339633484,-18.23711953621142,-20.011189697724593,-19.812661140098886,-15.768883110439884,-19.161782100027075,-17.25835346085081,-18.238104197017734,-19.274558161257072,-13.0207123982454,-16.440245839061404,-17.4826602686909
-4.727512710788604,-0.965494937808081,-5.598462290542733,-1.8544351373067303,-4.332580354447821,-0.6080146404516436,-6.290852371703719,-1.5006536265625154,-4.53429143717665,-3.1972266184703644,-2.5717606536059314,-3.5028641945678003,-2.1622084259233016,-1.918306530417202
11.008910469192319,8.098530767194264,7.218766661787714,11.165805819190036,8.552147639309386,11.939438065045449,10.040075086890115,12.826981685037982,8.900456285421845,13.626652575415296,13.568587987155986,11.039069190151166,11.55587582002876,10.884440239525528
26.433491761074375,28.000287885347902,25.41466775502115,24.178404399940856,24.406567685874137,23.910613038041074,24.43689179580865,25.23041237642667,22.932442476513547,24.392329338102602,22.25504842910615,24.677872197648412,26.915349312466883,19.383625452797585
33.87714040366297,34.38329205071001,34.006513830169624,37.365956392983556,38.077245723977335,35.15012871619137,32.96781447337405,36.10303683911792,33.520753556043005,35.85193500881704,34.26173520182441,36.40187019591555,34.94298455552657,35.82411124759817
39.184391108830944,42.33172828631736,41.688140909703655,43.07905906714929,42.74646261927758,40.14533080798025,38.160561835147185,41.31745056591421,41.69172511037901,40.4037377498851,39.15834393909378,42.070416253784074,40.87840152737056,42.31552109678892
46.310197671914665,43.77421460700999,41.293721742768284,46.14234018158657,46.171126217984536,45.67380802586581,44.13722331495579,43.271325689343875,42.39987472413818,43.51566389015965,47.15076616416938,43.295908538605616,43.59711360852834,41.79442533908137
42.83752537247149,41.50940415829407,46.058355211540295,42.919610812225194,44.3946942459395,43.75346697946168,47.418804138342786,38.19663553248172,40.86530791442684,41.529404064085305,42.20328769270078,43.35236977648478,41.05997712702548,41.910130140866265
37.45358500757488,39.49583966575121,40.922892340903246,38.74103520728486,40.78360686106643,37.51576486876856,38.68685255578852,38.11302086325128,41.32787696311461,38.729389059622,38.43845308929679,37.05177898437957,37.00239132208757,36.87795208965915
32.23393703783005,33.758549777524095,32.45883400388723,29.088302883256283,36.82432185992423,29.560410274009207,30.68425300602742,29.207857012775396,33.39112142651943,34.073428039953015,34.28726511110283,32.36788112057437,33.72411191296739,35.1573338104361
21.30873280137522,26.69374086907527,27.480893003231458,26.224971343245567,26.056723769183176,26.94550085026053,22.34426091515132,20.692023654952045,25.463323659543967,21.99493563441397,25.005399864959152,24.30862182514436,24.745464159830767,24.358995503745447
18.35021994154019,18.349322327119914,16.48428707982429,18.28435108999146,18.226548999114048,18.619984963315453,16.665181838968245,17.33279797296704,16.955855428135834,18.614214783639344,18.615156149227104,18.45648095561748,15.408440586989107,20.314059490814977
8.333437614038186,10.764844232419861,10.469875189247517,9.971149190205058,9.96459709993455,12.346282720876486,10.008173286228395,13.21566703064762,10.612987987208756,9.070920205651568,10.305175927186017,8.9499615717247,8.586643370647192,11.189885523659829
3.351158161794259,4.998976311785634,5.549678280262869,7.547035348302109,3.0290589966311594,3.2900476452268013,4.3079903365985555,9.24796873468775,5.0098312463372725,8.97848136902139,4.467009427407065,8.46442116677954,3.578473226317889,2.4026560522487737
2.9390264706053912,4.703349657512774,3.655247344978258,1.241267480589079,-0.7449979634407736,-3.102748731166294,-1.6838929834458005,-1.3940574554567324,1.239382702860739,-4.148850955364651,-0.664668560876948,1.439423987851578,2.0986162553282943,1.718967383795412
-3.3375185762368056,-4.549468570058638,-2.5275311646364185,-7.6983529867422575,-5.998115882253584,-2.8119253739821586,-3.4292003501415635,-4.301726781619077,-2.915553682717815,-5.653346979328844,-4.973850262773913,-4.648261606284558,-4.579904853667955,-5.4679396051873415
-7.836732716521588,-11.862373230392102,-8.498950864434123,-11.25396806983346,-11.977112057099902,-11.786529125348066,-6.036245977316372,-7.994947306917221,-10.457587833909441,-10.558264514015026,-8.371055311123088,-6.313014570280837,-11.927700538490171,-11.345573529826131
-17.62718917150617,-16.18300811887413,-16.40427363299804,-17.339091330176586,-15.56259384042114,-17.10805531061353,-15.075645734011607,-14.67292988337439,-16.170589974139187,-15.687105812708362,-13.731813220344032,-15.952160403794942,-8.523479030286447,-14.595030530482235
-24.764777386640365,-26.079477588362437,-23.359914427811308,-24.667981828735154,-23.26611896200726,-26.3025094245685,-24.447385216202562,-25.285956482611866,-21.150558879043736,-21.447718489403947,-26.439127358272188,-22.83613953488235,-26.51051312191587,-21.43766946254585
-33.720284639702044,-30.274701259774474,-32.25274136984697,-28.375929693874983,-32.546725161565234,-31.151288914960613,-30.061269157445558,-29.102131322160936,-29.552907076797435,-32.960601393046964,-32.28463582736439,-34.1530156431307,-31.65057284127305,-31.114056095777578
-35.526248009621675,-34.84229266583382,-38.94237040416232,-34.77979126265671,-36.271459427822286,-34.94416536648939,-38.38483832291398,-38.447035977688,-36.79826661468669,-40.947767692986204,-34.999487471439735,-37.16191054716957,-37.22358536985762,-39.13274790946866
-41.18375119425722,-45.83651933271331,-43.59963807190665,-39.373069106181234,-43.81371581558707,-42.96526973671155,-42.20456872558099,-40.16184140866077,-44.991926012081606,-41.905605951369104,-45.30514462204041,-41.105096624298795,-41.54633735071209,-41.899060026011504
-43.630494659280636,-45.51852911328674,-44.41071755860801,-46.72167668888016,-47.979276198996345,-46.57266028550358,-45.324174929978255,-42.75199404456035,-45.01165735808629,-45.95662085301757,-40.41460359085149,-47.733165813474514,-42.02505883452737,-46.34155557399452
-40.6129550481076,-46.04069079803752,-42.75209421574337,-38.577304915880504,-43.647503125028,-42.73156329457917,-38.757495576751666,-40.86988452589468,-44.308290401480406,-38.40502040743682,-41.3707824082209,-45.120021862406745,-40.78161391699552,-42.37666955908343
-37.14060594984611,-34.26539155992192,-30.703121557474663,-36.95192503970205,-34.00546431443396,-34.3372179154043,-38.51983766503394,-37.5149762544453,-35.58681875095176,-36.340460914738244,-37.36933020765038,-37.67333855925285,-37.072606169704116,-31.051851178910557
-20.998114414818218,-24.893660831643597,-26.27276923325577,-23.512129271068773,-19.707590112815364,-23.11106880293271,-24.76696581178665,-26.073114644307882,-28.874328884174474,-22.990123006681248,-25.606754311682817,-24.595306831188775,-23.083366216715845,-29.16156547533656
-14.788598897399606,-14.393974286591455,-10.953080283413952,-12.257078654854405,-11.744577862296762,-7.42117727104368,-17.35214194763025,-10.494364265850495,-11.813827947522405,-12.15241837383336,-13.992440354447503,-12.610359266636975,-16.496989815885655,-14.95491016887982
2.2244615988120175,-0.07613872198728311,4.235070741824405,0.43154712738500334,6.164951206341396,2.833873477491325,1.8028406879235566,0.0701041712632473,-0.33400232350584336,5.840715331875044,3.0366626410022866,2.4570355635455603,-0.39558542923583007,5.503407435372408
16.7513352632196,15.466301186603223,14.262935759626961,15.340366996406303,16.19092870714114,17.419562584828952,13.413399606434544,17.77374319980507,17.225247889384278,17.908153919853092,13.797637896141918,17.63886080846337,17.078916432838994,15.090525501435918
28.64232551102155,28.85885087215653,32.12233163326391,27.057581287410127,29.107490305934512,29.293643522461217,28.169940668205438,25.074747063308024,32.158888370315275,27.019271865042366,28.121951968703215,28.009053410204313,28.32454863570054,27.82641773322015
36.51736554360813,40.63178128179183,41.45977394148713,35.72689941692699,38.206985924835195,40.316927181051184,36.55008011055728,37.1856728340066,38.68150593105747,37.19139389123538,36.08553580227937,38.751496266593165,36.42404015174036,38.101938413772146
43.95592131752929,39.66803437283205,41.4871811572836,43.64254185646717,40.70831898373368,43.93847059980249,43.38097566084004,46.3100412182295,44.60875470291959,44.229065826049194,40.660105347441245,43.341052269025134,40.16499190311017,44.57633893705906
44.99499467877482,44.34700034733834,43.59750249637017,43.33117190435088,44.02675651389768,44.26651825230779,44.24925073706997,45.76713303931727,44.708647247359266,46.28545737094525,43.75515517922496,43.467063793964215,45.74076300613454,42.24486349523597
44.76528345819603,43.303153808880225,40.11025882788052,43.14688585976462,39.65914800829521,42.353597676677985,41.33882077903678,47.17473472431523,40.19870128107848,43.32513795018209,41.48959354126368,41.660133386694696,40.090902690461974,40.03144248936702
34.94401855148675,34.84745429331809,38.245598786343955,39.093270362002215,36.08708220900711,34.24053579939266,34.74156819357894,33.976970493681456,34.03832147422655,37.51913113933356,38.31369934599337,36.76528179606592,33.62330587425924,35.191980787964226
31.06349169861314,25.759210242767473,31.762616237455703,33.75566592822215,25.75839292763998,25.89849198247022,26.767254577811865,31.098501443962107,28.679180387327545,28.125507366394558,28.85611423232676,26.95017049344512,26.49414810457553,26.691654180577302
26.25045259492319,24.89480884183254,20.405671790591718,24.39171887997876,20.08442422945778,23.469873922507425,18.94494201063934,22.684386436975554,21.280256085375687,22.461025930471326,21.985879435206172,20.36756350458088,22.5447826617646,20.537315787119923
16.552195836030123,15.798077639195052,14.253256506252937,15.913260197525704,15.942415708296899,15.853597341683649,14.073209060091253,14.647041425332613,11.042807062540037,11.941022109791366,12.965837001525701,12.809927412384639,13.784954603977715,13.545314812384095
6.846391980479209,13.536545890794796,5.169809263877825,9.704437229588317,6.495792900277925,7.913538201805552,9.426220514405626,9.939808136277303,5.477924764685765,7.631041162242459,11.862825195700738,8.486047236654096,7.487470528203916,7.434190485942337
2.20639155927644,4.748404667636445,3.25170496569902,2.239817006168501,3.654968950758463,1.5122923830107413,7.451627340817446,6.040025120197965,0.0341499398303311,5.933050704412439,3.856759088310707,0.6046665282477122,3.0073894249696758,-0.7995528521857658
-3.7921037915992883,-2.427378433605285,-1.2099390673275008,0.2821970525021589,-0.96532428483277,-1.5891040659848654,-0.786652367262712,-0.12661811157794411,-2.120878608880298,-4.2067144534730385,-0.1977879692002531,-3.479606679231801,0.08704262347129976,-4.171184420710954
-4.960699682436045,-8.417359373907816,-9.561901645601056,-5.612010189840104,-8.056990249409964,-7.286730157652298,-6.532834049180558,-8.452810890204296,-7.771214072319269,-7.248740877878039,-8.140816703086921,-7.158071648593418,-7.906346065255442,-7.899229586320131
-13.764524079851329,-11.718706229571763,-10.259510155483545,-13.903876443205723,-9.809254983181816,-13.793582777218587,-12.048297188414214,-13.695741647498235,-15.255836048876432,-11.205875479347965,-14.769139357488857,-11.264154779395167,-12.647989024538951,-11.724020423169792
-22.037759660328874,-18.978714800731126,-18.421149909363862,-21.60327830052776,-22.5639466451034,-16.737120469118327,-15.518231472581592,-22.622854252781973,-17.16518443029681,-17.978414165262773,-15.832999111747451,-18.684085398841972,-19.126713515657812,-22.288809806384396
-27.262668617280966,-30.156352788976406,-24.44274413939629,-28.57230378819061,-25.632374283033897,-27.30535788333209,-28.15304101534117,-26.185455167919734,-20.21142939404615,-21.831068617698797,-30.769713017996864,-25.0452076064702,-26.879946090947097,-26.323649372181343
-34.47545627480085,-34.147597201006526,-36.13218779933061,-34.35177570241025,-30.657008096063993,-31.353665535072675,-31.299872343288065,-34.73488775572162,-32.53639748676469,-34.16861950660015,-30.008037614559004,-32.55849224691527,-34.18955895048605,-30.771566447074367
-38.79480051662217,-40.444525249635596,-40.9081328654863,-36.681578257259595,-39.87480801695735,-36.36465589524707,-40.592939343511,-38.267924352176294,-37.59517895344245,-37.66691998667562,-39.95131740972344,-42.00031830898101,-41.7992424280527,-39.46721401589583
-38.28730141039916,-46.387669304647204,-45.9307340629438,-40.60613210992671,-42.13648224390597,-44.89877904541571,-43.278505823142005,-42.24555685993673,-43.000764693831854,-44.85417595659221,-43.98156870292045,-42.412613627134114,-43.78328705155684,-47.81397516723728
-41.81571308003953,-44.621556686942945,-42.64930990385538,-44.0437488109822,-45.34660064408771,-43.45013043366838,-46.95346347554257,-41.7526972171605,-43.88798937542473,-41.68441974949686,-43.65670388038693,-44.61104191377273,-42.52531760078529,-42.00209742089584
-37.07918412327672,-39.99348206376211,-38.256303607159694,-36.433822947159776,-40.653811652476534,-39.52437101169576,-42.989731008746624,-40.165340131439066,-39.87560663979094,-40.85463308567558,-40.84605711244539,-39.437227398040115,-38.2501488156188,-42.635750646187255
-30.87611339231778,-32.78094759411295,-33.76205496860101,-31.30482264049053,-34.63692646470218,-32.236747935079215,-33.09161934003945,-33.360944621680154,-31.318091791834426,-33.477925979085526,-32.634070076096755,-31.505981699114393,-29.979982378253684,-32.977162959803216
-20.169289768588477,-19.63237041313729,-20.668887030739285,-20.26188638919841,-18.909461309783808,-21.878144116067308,-17.507445767557474,-19.395125559028155,-21.632479869277983,-18.04069751599356,-19.52810503242869,-23.628702430805312,-21.17889898105609,-18.363800842394987
-6.346629129842656,-5.174938774255135,-3.2842812401574264,-7.112164585746116,-10.218762209392073,-6.499415987251599,-7.982165851788134,-3.8621790256609194,-5.575315928442487,-4.642530274564161,-4.257656825714305,-7.109223544490638,-9.653931173925084,-7.729814933106636
6.143610517927283,8.457372207846035,7.882411298229153,7.925125345515559,8.260617604800967,5.348092592018292,9.61169130052263,8.556224671708263,6.339079482678992,4.49926827145551,12.22021933792346,8.838465775586362,10.919846805120526,5.666559264045583
21.1968738845708,25.048310950506966,19.756603747233406,25.130603231483164,21.151339000109243,21.009150564201686,20.218582214048205,21.2002887974406,18.681281807429173,22.961417681529202,21.616370575139204,20.32692841842068,22.659193875340076,20.682113697205082
34.59760150315569,33.07490764704679,30.880525107232376,27.462187345464116,33.057956035333525,36.63495880615017,33.411232782663284,33.089781164102426,34.09521273433439,37.59951703657729,34.44356311985523,32.847502978220504,35.98913090043074,37.812972711083226
40.502393875495066,40.44606167253408,41.92906615551591,42.681332463932705,41.91700487276962,40.09539622898186,41.26580351539398,41.75940545233222,41.472282544567946,44.08460821691905,39.091507365586715,36.09605684126842,42.48597726215972,41.24074896276156
40.33856308093888,42.06472647136146,42.35590199480483,45.3158266654141,44.9547535933744,42.93160083141205,47.258987557571444,41.26503012739112,44.380959652647945,42.54227644122669,42.16433701795967,40.69979484222198,42.70424939582807,45.787392884067835
43.58930830347842,44.56188978606249,43.29465587257218,45.382992013401974,44.93540356940213,43.25289105917303,45.543245429581006,42.26652193898291,41.93753410919251,42.84445214158807,40.36941483329377,45.24832893246551,41.983698102481334,44.57542811224739
38.04160811782878,38.350111366204516,41.030791434300134,34.79208414680873,42.085637352100676,42.440233636238325,38.65702577185011,43.78748145536099,36.958287022786436,41.60040748918372,40.87881083466317,39.32839520200227,41.14966053361803,37.982207186644615
34.19070001907777,32.42477967271678,35.880967809792,30.79614840627361,36.04192124917635,31.18350859934218,32.857239078191206,32.64293048379963,33.42538992513474,37.02292141053249,33.48441795569683,32.5524986060212,32.79952169237392,32.694161309673134
24.56148574547801,26.342726335506708,30.50769295657318,23.606003462333128,29.857884209188498,25.375051807924617,25.42482926258109,25.404849585612766,25.403249770972792,26.5704904572059,22.94499944142573,25.114086024060054,28.09753832125607,25.90251088287968
19.988320766271134,19.552620885869,18.65571062786915,19.784896844941045,15.518733066736967,19.04043781746618,16.450643575441777,18.49513971841379,16.07848504259926,16.285165243540472,23.083102064470275,13.854973476740767,19.812465306957893,19.39727686595657
14.312276836412273,16.008095806072745,11.583773688503813,9.544340719661815,14.925526280451605,9.361488287920551,11.615443495582577,10.384961968617139,9.984911918351235,13.624088304643319,14.129096552203318,14.240153543573257,12.637316335753072,13.21365230854112
4.39299900354942,2.645573635778657,4.590627836775322,6.943673153593092,6.052058721149086,7.130863950148436,7.163878090912428,6.036673674201018,2.7476135990990787,4.537358632212333,8.294175438330289,6.821007434936432,7.4678023115208205,4.390570222517468
-0.3001939251723107,3.7259781018533182,0.12247009912925333,0.2503337008995581,1.6177504600941195,-0.4328419934322212,3.0299181480776305,-0.6407256990233905,1.4292267263073417,0.4035223315360227,-2.71992136150215,-0.5302141868861248,-0.040185451793088856,-1.349722656961772
-4.353056281007314,-4.695008153295582,-2.913944822047032,-3.4434385273111654,-5.653250153616557,-7.592997998388745,-2.8069382717248827,-3.4174210789186645,-5.310289165021879,-7.012546191832955,-1.5257119815318552,-4.02243033003554,-5.045523501033635,-2.2368336271900002
-10.956685448659291,-5.110724395115897,-10.099981743586314,-10.305190083005836,-8.601977221449326,-9.046501751722083,-10.857206344043664,-10.484646809356613,-9.515553432067748,-5.984017602907679,-10.597301298270118,-7.714895102365176,-9.609038511198543,-9.952448181400184
-18.40014613816559,-18.481384005621717,-16.535444202418354,-17.651486446984357,-11.62965497610841,-18.239327892915384,-14.214073866968246,-13.776116750453836,-16.086848791728638,-13.823562641968373,-16.035284086467566,-16.686497166735894,-15.045863803208821,-23.0985018535174
-23.78844572341377,-17.58332231007536,-23.357428794295316,-22.379387836993278,-23.0601872884541,-20.567099448856496,-24.01212331327057,-23.061433676190514,-23.53005142982566,-24.436933214064442,-22.678171918345278,-20.785216366591293,-19.548164436128896,-20.301584810620486
-30.467078191264203,-27.992818423773375,-30.863914468007366,-25.514160747480243,-29.08365363013191,-30.290171223432495,-32.183408322194644,-30.300775373417164,-30.545505162997195,-29.672051017315564,-30.376573284425685,-33.39458632213529,-27.24264562349426,-28.80161479272511
-34.35272515342147,-33.291783071827574,-35.46939518025141,-39.20445122554682,-35.87693376788387,-36.73152409995645,-39.63273389182323,-38.05636114331033,-34.17052118575291,-34.8858001613603,-37.55484751493947,-34.707087127767586,-36.822566698999935,-37.76555528000616
-39.78591539978327,-42.54474513231908,-41.89928237549612,-39.46326215982674,-40.64344379678837,-41.57113514721617,-42.31625043662547,-44.00809861069112,-44.43452427582547,-42.375043382249125,-39.52039944243718,-40.94228823043817,-36.95460515886533,-38.74774466870609
-43.01922674122856,-44.590414680041846,-43.22521478014704,-40.34148849022159,-41.886213124193866,-42.492324935014906,-44.699750159142766,-42.06625508019297,-44.04613670742521,-47.68425918294811,-44.77563996159534,-44.88931980038951,-44.22236934164221,-47.798345423954665
-44.31463287333689,-43.978265678914894,-41.54047556218025,-41.79705101081915,-43.200210444208984,-42.58974856417101,-41.23334120911607,-39.95029049530818,-41.32798421970666,-40.99813349994887,-42.58564518508078,-44.17872923977354,-39.630277480791875,-39.81745082477642
-40.271600796240605,-39.09837158034191,-35.35088294989224,-39.05679498214437,-37.861147720977755,-35.631738695180275,-42.08229992188164,-37.2635510185038,-39.054828030171514,-38.465539447030714,-37.764225263124594,-38.4604823403963,-31.954260482455123,-37.763404467023086
-26.932763594637645,-27.500845491650896,-28.48137238995561,-24.62091213306141,-28.632563164046626,-28.990075898907563,-28.193215879990078,-27.950036607243955,-26.51222941988356,-22.291626881870606,-27.33500088142491,-27.442238340916397,-26.13217544369603,-25.237932829416767
-12.207467480210532,-16.13344654111579,-15.881448295463347,-12.965493254376424,-13.690216108971311,-14.55234120427507,-12.974035138242925,-15.12664598238476,-12.257058110072943,-14.64761140243408,-13.198212122943199,-16.50259596395253,-12.622997544640949,-13.835332953957067
4.089462404690778,0.43661860560082,-2.226003916649703,0.6444047704331812,0.46780199105392906,0.10097565273754183,-0.6794963499631341,2.2393440892441636,-3.1103787386095965,0.9024904607593203,2.478305830239657,-0.7723081613115619,0.11454529469779817,2.756824638175308
14.415388515943546,13.328385099756254,10.133857238781117,16.73429936157443,13.01674364276101,13.412311605251567,15.035529359773525,11.020173972909861,13.32617915054631,12.422536842114678,13.499209121905608,12.848631452984117,11.91400315884317,14.743373364032884
23.785796994521146,25.383605610103906,25.93286761719029,24.982981072568737,28.53145417375268,25.30179959499392,27.31820719144665,25.161147829327074,28.696750565632097,28.078725564823927,28.323913452790983,24.463531166409087,25.25001517446934,27.77692175883068
37.66893290669687,36.90556303367885,36.52652242081055,37.50081304099507,37.862124996668854,34.38198570124855,35.223815556964716,35.188064220253665,34.32058569365001,37.76956160667632,37.106886206001775,33.57816711488124,34.318348154047655,35.26643756137526
42.17553336944269,40.33414331032302,40.15562624982747,44.76464298744238,38.59533651626074,46.196923013540115,40.6639928008601,42.22123322071072,43.94349315846369,42.32169072369374,42.01607972161466,42.25547643962213,44.127898017039335,43.034609645942986
44.91426537026899,43.57361605564116,39.4493522485421,41.62833190958674,44.90583818805655,46.27635618698862,47.25408639635862,45.05744389114755,43.61756153945045,42.47197152751594,42.701070121477294,46.754772798948544,44.83246410543262,47.4615822992598
44.41554840369159,43.607848294749296,42.808342173074514,39.079128998119096,43.10518700718315,38.50235571578414,48.79608334097377,39.01245702403942,41.157678301120804,40.808683888315684,39.41613756201973,43.68300273562095,44.44262301192862,40.25133455646693
35.375986550573856,37.70778523581842,40.56912952303583,36.72538090177094,34.46682178286364,38.4235476775852,37.29050279300538,37.47675822089352,42.911536182105834,36.83432347087386,40.14022099559507,38.79354133118541,35.3598322340451,37.38196859006675
29.093428931572255,29.60589204170123,30.316298355470256,33.40316215607761,31.14025277440691,32.72427107397433,29.568813206509468,28.67437920254681,27.823461462483476,30.20742083210377,29.792783573508743,28.00287361375622,33.09441167876009,28.257215679092766
25.73672235706801,22.949420175147246,20.34252088504173,22.57053311859641,24.667228550401344,21.347485760419346,22.945208120668052,21.503159014778618,21.3817332743681,23.65188185114872,21.396367965848324,22.030773420447744,24.435363883197752,19.597769988948006
15.910020702410248,18.299928087046048,16.85889687781777,20.116401041409596,13.113651895178775,14.984924657739354,16.4099466193974,14.74585850347236,15.2767098833949,18.23308933207597,15.518062305868888,15.442062350542004,12.964604212896448,15.610950739658406
10.974031556476339,6.923059912320273,10.848687186423941,11.793816800687551,10.269097285267286,8.796610183510285,6.996799551301182,7.7169121588763305,10.549802892764824,9.610677024794215,11.484234989590238,6.8088321593883805,9.35951236179885,5.183214676307404
4.880693082070328,2.1668306785877194,1.8322219146017074,7.257620927283545,3.963986294987407,3.1768228209297558,4.16783846265121,5.036655679898228,2.6622641931507243,1.9318297809276803,7.9715183891578,6.021911070225772,7.264642845237216,5.432971123305404
-4.55402242662675,2.4309156579240017,2.291289438014142,-1.1504351731509381,0.25517854372375026,-2.9325552527356074,-3.479919748799292,1.8853115046174524,0.40227760748261854,1.2588157260997979,-0.32403931928746643,-2.6208469813597635,0.27631475319708565,-1.1925761189245694
-6.115801829872901,-8.899205763016138,-3.209886879999011,-4.447445811408046,-6.735960369449671,-8.663055963975633,-10.701949373886956,-4.036959215417003,-7.5497039433288045,-7.463458986526841,0.148601000875491,-5.6039065720452665,-6.360381782302449,-6.430250325819621
-11.894832465110698,-13.752090113057564,-8.65840308494931,-10.236889112125453,-13.378331160338346,-5.750604654412922,-10.2235849839585,-13.637137014737776,-13.450457507276617,-13.856127193344628,-11.78642592396811,-13.092445916790435,-10.481782480743977,-9.265223509448202
-18.01767483226555,-15.909279952394494,-17.218946178920152,-22.78173979056087,-16.172872975930687,-19.908157992371596,-19.28112336217567,-18.61381504319941,-15.989145377961487,-20.92908691308026,-16.299250038669232,-17.030592306782804,-21.132804777879237,-16.915246164007346
-26.38954835265288,-24.16475977079722,-29.16508042001656,-27.510281374417808,-28.879023911033396,-25.658517164188957,-26.059435555495476,-22.865444694162225,-27.211738985960736,-24.354959137817136,-24.50002432802444,-25.349537936988146,-26.734358957588377,-26.121326677415414
