AF3,AF4,F3,F4,F7,F8,FC5,FC6,O1,O2,P7,P8,T7,T8
-1.6929214180809917,-1.326988298062589,-3.508577968060034,0.8274200789589994,-0.9866682058701757,1.4634476230352826,2.3792029867965576,-2.9317104055469594,-3.9048074707860447,1.9299547998816027,1.3125834042726117,-0.915112477725063,-0.5735036476998627,-1.2612179365890135
4.147110600674709,5.276142130681754,4.0186936708255265,3.9121412733057537,5.220674404322909,3.366638288394231,3.5656466150324677,4.948772205088501,4.724308726055272,5.355553818622269,5.3511370209251545,4.776587776169411,2.1685019076357404,3.1751160296980676
7.477890440646614,9.633625404617005,6.2025117892858175,8.919282675351283,11.14799852697002,5.960687131288609,8.990490837961618,6.497503223745569,6.635858224220125,6.605567530640429,5.589085493448916,10.06263905955047,6.72347814359943,6.723993361020863
10.153214700960277,10.45268605396079,9.661848916995767,10.6092005795891,11.655768550663911,8.442124231679504,10.880460644012771,7.497162359019611,13.218252380591029,8.556677855571095,11.009956761040193,8.08668319328386,10.306056429431143,10.098946360927854
13.362681622230442,15.362520583128603,12.888915132900507,9.104849943166341,12.174334475029488,11.561230982103428,12.739116038926435,13.128293915715613,11.05247526204886,12.33434831851432,9.753138088931047,15.64264948194757,13.597891941635345,12.515504309815569
12.144459583637364,15.113956530951715,17.224162340662104,15.02098123609926,14.400523158318167,10.120871286703856,14.831131162419906,14.631762428007084,11.741176931873323,13.334545238816222,11.14833547992693,13.74102958981355,15.169849538347375,14.851106663608899
18.05888253532281,13.738463353278444,14.195147386120428,15.251959519935054,14.144703941428144,16.303364335702323,13.70366836334962,15.258598619964383,13.806384329597545,15.304047448917618,17.16252509919324,14.988855317513181,17.395937836308875,13.158953744240248
14.008752014522123,12.78689019722605,15.653607278857903,16.922570676744833,15.299876591259435,15.978660409169954,16.883807616092692,16.628219239284427,17.426660817481597,19.177450686382812,15.228523203557032,14.685945009257996,16.32042053257014,16.944248326559126
14.904300438384544,15.88235860450425,15.297145715174947,16.330544949610243,16.29625611218445,16.7075172534177,17.631275928887828,13.44085037918688,16.74511784660913,15.778158745361573,17.353896507801803,18.325505923796296,14.196132384463766,15.90945373282635
19.991109761036604,18.001251713127004,17.52914575391834,14.261043787964747,19.01441371315368,14.725597446506864,16.5632103302306,18.196940660692146,16.008399653362854,16.64885377490321,17.147176982036033,19.140031118543273,16.430653185217803,16.08502020852029
16.923020189351938,16.291913365685506,19.038480845576906,14.768548129326074,18.74316802280498,18.609765439061697,14.803146880764746,17.930470527859615,18.976064044036164,18.047884261539767,18.178444066224817,18.351197997803894,17.01685306928892,16.51225990834442
20.578199282373042,18.592908309588736,19.214395044714465,16.40538631268066,16.32936420376319,19.241684695671825,17.250678076987636,18.741034205466008,18.73578515166856,20.0614043110188,20.316600750314784,19.979822096593157,17.715468825805797,19.82025769663955
19.491861408877202,20.090140464285057,18.58448566522373,19.146749927270932,17.67309968510929,16.595133893424105,22.82787617547671,19.76973665411806,19.43531878749784,19.777071060815036,18.06948560370028,16.973829379219804,18.433513082533587,18.591945941402543
20.325455635316963,21.053943577468058,21.401552164233756,16.084130501284456,18.64202998204318,18.854140679967998,19.79307094612622,21.02995752140856,18.809921221789768,20.264851130397037,20.981089726932037,17.220988016738715,21.498615348455342,18.986867817248395
18.06795666046844,19.744146982873495,20.3463295943922,22.649283003041244,21.322473473078382,18.069639575118394,19.94134503782558,21.622958830236264,18.93647205334274,20.133008153745532,20.089303356986893,18.73463368912458,18.599443006055523,22.931544953956703
19.012796804873183,18.847386913182323,21.057017686444166,19.872876801261604,19.01038689316762,19.582158598836617,17.375338155234758,18.924045057801354,21.147371440467346,19.078627048580117,18.95364780042888,18.110236821536454,19.19654267943223,19.739284175102608
16.71110105585567,16.546193738011585,20.142741797923264,16.065034459797516,19.4177394814611,20.180342017612663,18.560742470551972,18.129168412818334,18.741179961830046,17.231343094716767,18.653990427792042,18.052441562998734,16.91425025494093,19.32021804915445
14.621120012450348,15.753882220978321,16.737003988838396,17.714008891485122,17.147683594659547,14.618678089184554,16.7811573864294,15.911353391017846,17.3642294690419,16.151345614243702,17.935214104377064,18.517465456789754,18.788520009536995,16.73344562091882
14.40654909199656,14.60170758597799,13.410810513375143,14.798975953604002,13.398534189480563,15.39791099668424,17.722477892574535,15.139415963988009,15.504054573502074,16.41873202279793,15.582575168138588,14.820626645077617,13.207666141316274,16.034224927339345
10.215884889176973,10.713380142591088,12.64626226751568,11.465220731923319,8.491533312345272,11.91381960707285,10.82806101530111,12.73904959214961,12.74936632458899,11.206731007996042,11.989012948505088,10.630630405173896,11.666037445500232,10.505302858438977
9.135805147629162,8.224438616656418,9.21616587911342,6.572786574223449,7.844704586757089,6.563542291576203,8.976836196734935,9.338869584911421,7.388330220306241,8.471583139451095,8.684844772663375,8.025691199609719,7.762607940944681,7.961273420240615
6.4613411888686585,3.3389546632833254,2.0392057608804914,1.646465902582869,3.8118568076504564,3.5429434693554174,5.977390658485236,3.367305500030472,3.2282605547904746,3.1824314521152908,3.453997245827101,3.379090567618024,3.2809979030163645,3.5397748923366867
3.456730109298044,2.244398978171999,0.5846665000401976,-0.3145478937104522,2.664822820837445,1.519204027955689,3.0380584181871626,0.11986757116721236,0.9300244254522392,1.3931900723646553,-1.1560264482979712,0.4768182430707082,-1.6899834519156507,1.4325086595217864
-1.7435139417984962,-2.1965509911907026,-1.8777468926273648,0.16367639926955224,-3.211823400101996,-1.6371808176877374,-1.8200895581748038,-1.1596966850391859,-1.1410853774711565,-2.9203423883378195,-0.8994995600817087,-0.6143998323438924,-1.3804347573635227,0.27228416088679963
-4.797226118840902,-2.3378658163345527,-5.329653300915142,-3.4572865852920263,-0.8088845740151753,-3.8859405719871645,-5.738381762324059,-1.9766070603652168,-4.664618317749615,0.6498062399755447,-1.0942076186824714,-2.9371236887062526,-3.5667551518810585,-3.044077474243212
-4.516711901223664,-5.33162910880096,-5.094328372936568,-3.110467500048103,-5.272368205878656,-6.967875143201655,-9.49308675424038,-3.4564842262613524,-5.813150791931965,-5.5487454106357745,-7.758145799016119,-5.394522324284231,-5.127533799254076,-5.819277978193977
-6.240912040612771,-6.17537996365658,-5.957969860188678,-10.035409316623682,-5.50286400635334,-8.45052206540316,-6.187586078847462,-7.410319341328766,-7.151349669334461,-6.782393024600879,-6.904297040624117,-7.064424847243231,-7.329413738500642,-5.94743169761786
-8.2315909270839,-7.207014459323666,-8.524772528751644,-9.20019941783634,-12.53492103882276,-6.40469066705659,-8.755186353245719,-8.926907148411571,-5.076263733864538,-7.210592695010256,-7.053470716749955,-8.693655658318688,-8.49705649076551,-6.485558063608874
-9.438992847407608,-11.39433218226485,-11.027037401684106,-12.346426904368604,-10.91923624231535,-11.524988391820877,-11.220264915568148,-8.523076533533168,-8.833011578204715,-13.440667621706492,-11.715536769957458,-10.291370634301323,-12.299645258655499,-9.958244933968409
-12.789531869834862,-13.200884534559139,-11.86124411191635,-12.475568744169376,-9.46195376219679,-12.883471461407236,-12.681390865422262,-13.533833935874426,-13.51239600198813,-12.381146580951265,-14.309349194149409,-11.285485867618158,-12.479534776077067,-10.784561813630496
-14.279923693018993,-13.918820005640843,-15.140045538016693,-17.362567237125283,-13.359002163345744,-12.36532683804556,-12.514207184544619,-15.374701499475691,-14.616010449657923,-15.599288866012364,-13.029225863462623,-17.06446413741718,-12.53351656550744,-14.500318124558344
-15.765912633046748,-15.190159359026262,-15.898543966922698,-14.812407960855605,-16.02721083133537,-16.022649742050348,-14.544042442853538,-15.847094983132086,-16.17304275649224,-15.613156327620272,-17.25712116740734,-16.73345373485734,-18.78578757962525,-14.179288869186243
-20.597947778790708,-18.53390784403061,-17.485363862113115,-17.11285587012553,-19.888500102275927,-17.500062190017346,-19.08165708905179,-18.276715452542838,-19.138801809382915,-16.94018419641546,-19.42202980621283,-19.555697393511007,-18.14538304457566,-18.833666220395003
-20.43126261038745,-22.257673514763884,-19.680259962488243,-19.418031175364998,-21.572853638697822,-20.61655957335688,-23.940110856017192,-18.57327372066895,-23.322240765276597,-21.464366111565756,-21.733798717718436,-21.440381349753444,-20.7415256642439,-20.923305833522484
-22.31459440726782,-21.974640284356294,-19.04875964308386,-23.100655947387413,-19.405475836950743,-22.913405687455782,-22.399865848478274,-23.48228317361784,-24.834665949833116,-21.08091069048926,-18.954660920760052,-21.01793295937275,-21.299860978335754,-21.084947815785814
-22.109725455044543,-19.701465739983682,-21.90547940925318,-23.96085981904335,-20.26998589916689,-20.628271124610183,-22.857801716681625,-21.725398042740405,-22.355402336312608,-22.729481820424034,-23.808504187422123,-20.71689806508122,-22.914001557980093,-22.77373851612993
-23.526146884859802,-18.330083662671925,-24.893401608735378,-21.46676457022452,-21.015500369695346,-22.942808018231958,-20.227570383887567,-20.75502610883671,-23.109200739823514,-21.44948098113936,-19.70317851279367,-22.295109959017644,-21.674946923616456,-20.628725811679338
-22.85919810411884,-20.2923252270105,-21.37043775854218,-20.010223862070244,-20.53523485336707,-22.22638162765917,-18.641562282388758,-22.70474119121152,-20.902690555220175,-17.617081635818913,-21.951420339172053,-22.14652453876942,-20.417352642330112,-21.758687273501657
-14.180797426492102,-20.22456564820104,-18.584400061671683,-19.981805761608125,-16.991365992517686,-19.215712899983757,-18.690128976552703,-19.942435836481913,-18.98303698472101,-17.318870427747868,-18.496417656580714,-17.743420145472157,-19.69037304387385,-22.151129208024653
-16.033668508852568,-17.93360869355249,-14.264038904898468,-14.72922544285636,-16.026999453341677,-17.411588211287892,-15.41971259415328,-15.71094769391925,-17.598510362085513,-17.104278815694276,-17.699392512226513,-15.412655051070868,-14.495810433510467,-19.820011906209164
-14.590585794878823,-12.25615436149235,-14.464331250175784,-15.5306576219715,-11.25153089840575,-14.79451985848009,-16.56699743956591,-12.289428193634713,-15.65378157520962,-16.110715325756797,-16.16426136775703,-14.05415993712652,-14.715815259548592,-13.247348881238054
-10.612399136348284,-14.767170267020617,-11.211444000745558,-10.610528004535105,-13.824715805221313,-11.163404115070641,-10.397207452926368,-13.141445462800768,-11.594962203696541,-11.037997779391917,-13.336420578955678,-10.701992481704984,-12.600402683349337,-13.560187083304964
-8.287381476812126,-7.287203312357869,-9.568932413483186,-8.500435478902853,-9.76038088272768,-10.280721283521858,-9.077252163409046,-9.089636059414614,-9.48367758684618,-9.466312027323143,-8.630579693751141,-11.496823238505556,-8.505084914468176,-10.284532794012822
-9.4556687551669,-7.684181684434526,-8.065638508206394,-7.679022746893686,-6.303269175704965,-7.3813183049023525,-7.564031850814501,-6.372077108718507,-11.171415534025897,-9.304001940129734,-8.847368537448318,-7.869304056341179,-6.800370512124012,-7.49546547755843
-2.659863105218151,-4.742944913647154,-3.587605965252886,-7.094439250432071,-3.191777371768768,-6.508428959741048,-5.444242690522993,-7.086446549405594,-6.2181644752122525,-5.803192767638111,-4.420097507999811,-6.701599596132687,-7.423988539368975,-6.591074673196501
-5.708748759978551,-2.5621904515611726,-2.576948582467906,-2.7777287432876703,-5.188291088340989,-5.173604891212016,-4.147751464763124,-2.6045789406092648,-4.116472061028161,-5.855897420841955,-3.5612868304685334,-3.7265668302281743,-4.383022676482838,-5.677727119174488
-3.302296477508058,-1.8145634981856236,-2.189552371018684,-1.1441297517156586,-2.558952665240321,-3.1347680309977233,-4.363308761786067,0.5465316459419158,0.4345421866280992,-1.1176893719507976,-2.9866268120658823,-3.6566289916723616,-0.9581308218111022,-4.138850910607896
0.47126546878478215,-1.0189766082120908,0.9206698156719919,2.623084237810862,-0.3759914484205416,-2.1903111087890004,-0.9664408790090745,-1.0969813605990182,-0.11594859953591719,0.2881756703458106,-1.91382573191081,0.8616150869669097,-2.0777128385475243,-2.70465875163412
1.5036617762190017,1.7956750114482667,1.9827151750799694,1.7170852498819427,2.863987333114335,2.983852546687226,1.1158190573965032,1.8502264012125593,4.4411028387134985,0.7911295576772059,2.350994512361232,2.2457058442206304,2.437126426283515,-0.014355526743486724
1.4138404557089332,3.6763275998507052,0.9150009988875842,7.106310060355181,3.7222995286278744,5.354555805242139,5.176985909206168,1.7056176256858189,3.0385334193437585,3.230714282341786,5.14962863790728,4.867734453699912,1.9052349733034077,5.571077452922932
6.909743742713861,8.943788229371034,8.403886211528839,7.353124007201913,4.292129748064044,9.35682233636117,8.08718620553255,6.4610586420953595,6.588381558424764,6.282704381305983,7.726107246396192,6.439078726508429,9.238197381295262,6.710815182597768
11.899735730811635,9.351824420926516,9.329593343920724,13.275286658862537,9.706006410279125,9.64318263395673,12.16455021435746,12.724722083265842,11.015508015966523,11.170995117685315,10.854515476012262,10.642805386838978,10.938147231876016,11.057873900566745
13.455328911418052,11.230569968609814,12.524670067627891,12.876608843939021,12.618177625079355,16.167936505184976,16.262216105990042,16.992590814990866,13.862808742000173,12.524111121605602,16.248543061384442,15.766722251093222,12.717949941182683,16.220695055426734
16.96898226076738,12.97550779097087,17.98560796029464,17.644200477991877,17.80066846061632,15.6852847596744,19.82055679339068,20.119551042447227,15.671781854794181,14.780843752165842,16.168640713274264,19.401264192705884,17.94417106386027,16.220620552286885
18.80709425537842,18.886967875702283,20.66998703730791,21.892888279916637,20.727269981125744,16.79717209586466,18.09459989762438,19.932897923354297,18.649232092503826,20.119372008885946,18.784200987391447,18.73768670159166,18.84189309594154,17.095571024597515
20.360254706044817,21.287617888606764,20.406456826867796,19.74377304105589,19.97201393613097,21.49916807381221,18.980260369950578,22.094024241942535,20.022946726474036,19.965930223043376,18.39884236472311,19.5085526880047,17.925167146316994,19.279351898898945
17.930979562867773,21.31978884466786,20.21097440104283,20.6942660384842,22.218292469397273,20.353965839989737,21.84781597215041,21.645230715024123,20.152209279006595,19.62461966183085,18.743276452672667,22.36800927412297,20.370214009921458,18.5300794674491
18.93671271975639,23.66510471131355,20.145256092132236,20.35726660439812,19.674997283221195,20.715165812658423,20.082977627285256,20.327280910912837,20.635302148885145,18.5917992801144,21.81445696211315,21.59287784891058,20.365164608866195,21.45582013914803
19.6451657516863,18.5799300072347,20.985168635759738,17.753678248555104,19.30751060730018,19.56403280430486,20.632957193814303,20.82242795758566,19.962883308312435,18.97666572671098,18.987691602330877,21.210908267523177,18.57975924362727,19.81021857901829
19.02624903049239,17.067213366730407,18.651812533250666,19.60835156751237,20.16724547335844,17.85333426539654,19.763204473550598,16.5463801158505,16.129744976724158,19.6504626517944,16.16198207039512,18.56811902630368,20.022354081453535,20.583095352306458
15.983351818494011,18.11948532883856,17.350188468781813,18.771267059913466,18.012812056021193,18.44321733462516,18.436569501924872,16.78110855998897,17.416711582471862,18.193928745348316,17.38061879003328,17.022614093712527,17.556378198593208,15.612483037737766
15.542759073615331,16.89166434104289,17.104912929433354,13.843536193114753,18.48473615105441,14.545556502013419,16.04767477061206,17.543926242948665,15.580182521732457,16.976773518445484,16.006436546773497,16.977309973823285,16.786388386316972,13.95015577893755
15.412569602338182,16.12968379017328,14.741233641953848,12.108136987248571,15.728900322243852,16.259793719806773,14.530504952590451,15.642358956563308,12.87222085515907,17.880493862155173,17.11625796757048,15.60633965340798,13.177980586307408,17.088855050772157
12.395136371893894,14.651242415957455,15.163154241860138,14.212135119374501,14.8849048318077,14.094238611617929,13.37493396979523,17.504915427299498,15.058534339947336,14.160376363877933,15.227376325426011,14.286185585422132,14.06299989126882,13.728030764722067
14.53793402432435,14.361137419841462,13.649299737541604,14.226558732604289,14.326503165723926,15.450791754045403,13.835740455757042,13.80917344654141,11.977908140257659,14.354897002786318,13.848765042942174,14.944870073789675,14.771510769341681,16.855594122333383
13.390151242961121,11.941381505342033,12.057472419605995,13.521210635250725,12.827106557838839,11.775431841201202,14.914968126079064,11.481199734971787,14.6764936814441,11.667321569939872,12.258004484693988,12.503219094399586,14.20742251079817,13.31062555281351
9.514889531562957,11.362438520444158,10.497962373694,9.938035785205347,9.862720169609652,10.79767816719915,11.78769040144844,12.135245492039967,10.59034708376468,9.67807986060106,12.324535700036284,10.862362571684804,9.309042719816887,12.413034050456327
11.015767082137458,10.576065334007193,7.7927723551732075,7.92193340473888,11.174985430373384,10.003437278854685,6.285925932626699,10.603704112737418,11.458542697618284,9.922723770463683,11.71662330178089,9.20172565648843,6.207301077934737,7.775031495911047
8.660502426399658,7.325507992548649,9.161672988795889,6.865422507302233,5.812727856293822,7.702682527736136,4.0983105340716826,9.526731971947838,6.8723468076965215,7.496915649766265,5.306459202925182,6.908776612403842,7.821336181932072,5.574218234394084
6.696230236746629,3.4029000177974797,3.6647779046882043,3.4460057287314516,3.3894571228617516,2.369333469328462,3.281731079047413,4.296454043323685,2.3132514934256125,4.6324844863077,4.676417662576431,3.100153058207787,3.8335946969106165,3.5768789492143127
3.3004086828588637,0.08260287120619969,-0.9299304351304849,-0.2230634924771983,-0.8003801848843086,-3.026835891612157,-0.9439405781571948,1.0952260525362638,-0.6337608961210539,-0.13361056454620446,0.08957063839213047,-0.9214539568204716,-2.5741588580267223,0.3213440931432446
-2.7751413449485898,-1.2921967853017926,-4.832786518274026,-4.2910423134776225,-6.117892184090099,-3.6761139603030717,-3.8935787260124575,-4.570652526147041,-4.877874468348965,-3.376134450931133,-4.659578981182374,-5.656999019963944,-2.7241767735327924,-2.7651639822004954
-6.369050559555031,-9.84894670410614,-8.575032554501327,-8.665195927718862,-6.656290963366053,-9.25259707898663,-7.103045691700746,-4.7805661204710175,-4.134446702027678,-10.878120208507873,-8.038132294160931,-7.019225456032183,-5.632818957680113,-9.798645531254984
-11.460936306093329,-9.388165047486092,-11.213143277583587,-11.509587300664387,-7.844902670507656,-11.717811739582046,-10.776351766356639,-10.10755849691538,-6.946813939080428,-10.96519443261441,-9.319667949630139,-11.340318109565045,-11.411843185121633,-8.837327896061927
-16.558998884779367,-10.470722652050323,-12.446530799403376,-12.369885659592557,-12.836571907946007,-13.851386486972569,-11.998848339588221,-13.027375026321478,-10.680006719065325,-10.175397427733705,-12.504932538554858,-11.763213067680937,-11.78770632316766,-11.845983220063818
-15.216735039091535,-15.985808962084086,-12.82679116186007,-14.692217437818847,-14.32663326008641,-15.418690766717832,-13.156370970559674,-13.50592457195382,-14.445025168387033,-13.116497991729831,-17.18380806074166,-15.61431113702836,-16.791890206376443,-13.34137775388611
-16.01673140280311,-14.82725653013194,-16.366737008045096,-15.58489790406925,-17.84098268931017,-15.881085073799888,-16.719665774412903,-17.707619045354516,-17.043053556619608,-19.443022949302474,-13.71064520694552,-14.05103270778211,-15.052679206513043,-16.136321946196347
-15.096615305212516,-16.511642727091605,-15.457018096711039,-16.559954571480166,-16.220212140938106,-17.27726940590611,-15.368031627106472,-14.4429994888504,-16.592435881196092,-14.096132345991947,-17.01716243629075,-15.46386654169766,-13.498093546246956,-19.023503602590445
-16.830805595619285,-16.10704998070997,-18.840911324336723,-17.325379171176294,-14.090428898740996,-16.88925408867188,-15.440499588270027,-17.115656832610007,-17.062050317473165,-17.65214032653609,-18.07706534894691,-16.329493136013866,-16.143622364836947,-16.5069262736398
-13.403175481171775,-15.538426914289142,-17.462786736292916,-17.096934784146825,-17.178603211795796,-16.588171146114377,-18.44225631124403,-16.487467248153955,-14.01018219645557,-20.547272628268974,-17.687192772960923,-14.946057271671723,-16.07791458211164,-15.329986631401207
-20.016754799541154,-15.949305531946461,-17.235078498242906,-18.295782267528086,-19.640571077250264,-16.030358181349012,-15.606938035258507,-17.716892261992765,-17.068445745219588,-20.014249991054747,-17.88784166462333,-21.005900372846476,-18.80622597043403,-16.702790404150893
-15.712109987245116,-19.275398621255356,-18.258905476204852,-18.72010665694829,-15.975398744610295,-20.586195771731305,-19.610116276423792,-20.339052705945274,-18.831260183519454,-20.70146151147288,-19.208321961507806,-17.44721013053825,-20.543648182486997,-18.04511769465758
-18.07524724712471,-19.561684061768364,-18.14308559184673,-16.810271402382163,-17.139563367821577,-20.674647300642906,-22.170482531618408,-18.749053679044398,-19.30028940791581,-18.225845196037582,-18.320761629273903,-18.42262776117154,-19.654083446659012,-19.155659404161742
-17.903425580913904,-16.570811113091295,-18.92111256288563,-21.454410926885146,-17.79172091070998,-19.09046263833259,-16.313600872860114,-18.272860140148428,-20.624168992034488,-18.130408180113637,-22.086431869285818,-21.177162267646057,-20.589514872588502,-18.198661010040386
-21.579205765099847,-18.376666778737864,-18.307930693784865,-21.104061298501147,-18.596371253559216,-17.75294769767309,-15.586201804042634,-18.143565996876674,-19.947405545539898,-20.203144956642898,-20.431093168953872,-19.1041322945669,-20.65051077034228,-20.55315256134865
-17.836011994268965,-19.504409068044694,-18.586333789527792,-19.150000082161075,-19.365971157434526,-20.516423201812053,-19.10525073481524,-18.644494442743067,-19.853801643425477,-18.505536226780652,-21.27337947616628,-19.634312757034674,-18.465956329402715,-18.80470543314441
-18.456219207768903,-15.729015725524878,-18.669071030320953,-20.194581754259424,-18.852569971910942,-15.865129102740864,-19.941083548641952,-17.254831406593105,-19.230707545022835,-18.352676134028343,-18.53099386852626,-16.456456829780173,-16.975396013243163,-19.291730620564074
-14.229528539448935,-18.06190746762563,-14.298771709760118,-15.784449865293322,-17.273776256521273,-16.0950468425624,-18.480749218744933,-17.696846644921415,-13.774345590282667,-15.553249422706099,-13.853636069281539,-16.135721010061705,-16.290912483122693,-15.946127181326188
-13.439604206393401,-11.009271510198253,-14.83484020030631,-15.222535163388185,-12.315575821827874,-12.566733176514974,-11.83392747595572,-13.533675593965315,-13.818089202549762,-16.37782460768652,-14.624385593305256,-14.431103238067028,-14.111591811098174,-14.398211305393893
-10.019545797370114,-13.09254367031124,-11.431441303673033,-11.242172002511102,-9.26642731603075,-9.965879819898499,-12.168894828069654,-13.991551867266983,-10.966075636161696,-10.847942041729192,-9.64468127168745,-11.950261450916727,-9.355587454171443,-14.155735237732305
-7.532093561312976,-8.854200802102907,-7.589272477182693,-4.77648936728619,-8.702793400438695,-10.06466063487792,-9.746883791706654,-9.785260866433608,-10.520524746685588,-6.9331270731018115,-8.206998995407885,-6.471777054815681,-6.981518538231414,-8.06439180285955
-5.781883062216869,-2.9084069041681935,-4.691969836552339,-5.943726661682428,-1.4394904304216984,-3.632849106727032,-2.1734704901862663,-2.485712059784549,-4.773907239509577,-5.518996246824813,-1.9528382049530317,-4.311111906245294,-2.4917779965484064,-3.0360624496767485
-1.165344887587283,-1.8392244773221766,-1.3062378103736034,-0.5543671375256081,0.1911861337002243,-0.4557627503575554,-0.48264194310088215,0.5593897491879314,-2.641389167381959,-0.9007704023345972,-3.254699993536515,-1.1760410185629335,2.32991805914029,0.47177844945395475
-1.4354816528246144,2.9472953474649923,2.7342413086058297,3.5081940458349523,4.376744026198799,0.9472373767137114,3.3573613993776137,3.8301149636575405,0.31582211083746503,4.056033944309147,4.485022568341725,1.9476147935022576,3.0336528275125803,1.8138101568956642
4.552018402161239,2.943077662516823,4.016270612221294,4.009363520267304,5.546604136147046,3.4702662019721857,0.15773323850454357,2.7388550897959854,6.341058076878463,2.2936935986073284,4.526954966906318,3.10136108055819,5.727562978002744,2.9819710489879263
5.932058733737392,7.480064468553749,4.3422622985966015,7.703097535385377,3.745170967022149,7.681725132555791,6.159042014758442,7.597300848096001,5.011513763152502,5.194680418804696,3.081357277672109,6.711625721325055,5.833222175689338,8.722606058988632
7.460446896892606,8.365572373754166,7.91982823678002,4.641830863649999,10.90086059726073,8.600771599861899,8.670752081276868,6.639649420631331,7.775678382501063,11.2410258878311,8.311257111482186,10.009427872035907,7.60865784099063,9.2809063726686
8.154568533273139,13.192399063362416,10.385421929969867,8.373831612763178,8.197415705741374,8.421561230186814,8.885838160023892,8.725491597786196,9.07683586933511,9.30438808610888,9.205728522569702,9.138070188038546,9.532190774210969,8.917325223446873
10.466261749737718,9.960500397306552,12.191112172787705,9.730847494370005,13.917380870730252,12.103197878552049,9.778745516332346,10.52384358491878,12.057698892581364,12.093474500254503,9.863913141135074,11.862224182228191,12.715788795065112,12.382450117390356
7.961857003331733,12.118034567864722,9.709590352771198,12.851048737811835,11.922285183145398,13.731615704729231,11.86749751574243,10.554009553877439,13.787753155495476,12.589063570048964,13.512316365037469,11.835445043771715,11.192038600794376,12.492919390607948
14.634054474945268,13.448943286612838,16.56540952925804,15.078506804436987,11.673522190319428,10.754289555452544,13.806664590674322,12.57124385285106,14.03645597480061,14.756077785735101,13.55084529809805,14.044063109122725,15.573873469477766,14.543106529559237
13.713458589287852,17.73775166692577,18.427412693185634,16.926644694837805,18.35895623450357,16.990785795227925,17.209616291229477,15.747697788322695,16.893642224158036,18.294018659479445,14.81374187125262,13.215454715527535,14.800417806998817,15.236014717729514
19.18728542354403,15.51580711248391,19.194295523393862,16.775865105534628,15.894418157160766,21.4631618557809,18.18608374183173,18.689432288268996,18.112417916078435,16.34548857815916,16.021065443010613,17.751105326196306,19.73333844626188,17.562670073495084
22.1549421361417,18.232633674828943,20.93217392396417,19.92338783777096,19.154058049108322,18.501065482579037,18.070986808595908,20.03244672772366,21.975690794987916,21.86397127067136,20.297000029255162,18.937607597756347,20.029248825714557,18.99386023262413
19.77271660331814,20.130297225916614,23.256795255354856,23.51500734964163,22.072227759300944,19.506573790658212,23.959628814188648,21.52737685787938,20.178767407588282,23.0369851233613,20.720114890092386,20.106934334613335,23.20692483486775,21.613445433385465
22.011179162009043,19.60670931830418,25.524385892178877,22.43142378745295,23.802585816351588,20.377370837122136,23.669364924229342,20.16017688321137,22.191878214162454,23.935404196847013,20.44272534443623,22.707804128738527,21.282083697136976,20.083904584275057
22.9936827839394,22.629612379361372,20.98620826098246,22.23523925115216,21.131851573614217,21.550580874861176,21.350354992750134,23.629586381802365,23.57507473930462,23.55781088883828,21.15352358951452,22.447545968876913,21.25716530660991,20.796469356658992
19.897342250341943,20.96094846967614,23.064117167232098,20.21980097607986,21.20678554528416,20.584239909095935,20.641325711051568,23.74072798455429,23.598580737422687,20.144559463164317,21.07686067280379,17.886770733466584,19.27049009994028,20.765183051422625
17.759613084740735,18.256075192820965,17.720075606540313,20.188140948788064,18.15390820047013,20.657580682123708,18.667680016241718,18.550659650534786,19.112445865585602,18.615951973788054,18.649955478427845,18.448070513598275,20.51404267228977,14.300248295145884
15.763303763937955,16.174511099706024,16.79644006288621,17.404684761962464,18.33249531259603,15.690633117959885,16.4775202954558,16.072578011301843,17.695897907884145,17.286276021554215,15.346231604555122,16.13447809213209,15.723362844071147,17.79534826222933
14.100725154172453,13.272159671383054,13.296278360725921,13.004708357421242,14.331808972084524,14.420158581812109,13.756224723769874,14.11484834352902,13.346307269959153,15.107694046412266,15.520015152564083,13.727439728464184,13.948791350245406,13.585335706669873
10.810120564408034,11.964109803009181,10.895340663732393,10.70888852366059,10.19198979507586,11.24185509198013,12.72930264762603,12.268777330384665,8.590546503407515,12.691243673592233,12.060979978756578,13.183410819280875,12.080728010042163,13.056392224626508
7.439796864711477,8.060303993185952,9.598385057329626,5.88042956424966,8.95230005873067,9.050162075826385,9.340779961081472,9.732348940516985,8.533979243016203,8.776278333547753,10.676903686746984,9.795225894750686,8.173281656140587,9.964015853533603
8.200320944061234,7.361529776086959,9.680883825373556,8.367938810312673,7.069196890880636,6.092178095503637,6.714773457671694,8.822490733836675,8.145605315552267,5.919645071575456,6.932591394355089,6.811439334743603,7.148647049362529,4.984005141796473
5.960495066397607,6.351753426378352,7.8920955372872115,3.7617736216350126,2.1177262896630644,6.210670334431708,2.304812211858654,8.626784772757555,6.5341179510481835,1.9872647513763146,5.128832749938899,6.61957695581822,5.968257524152988,5.299799509413557
3.6811572577450082,4.482285504573515,2.969263540583048,4.803972345530413,3.421339301833648,4.010507257325719,3.721197802698927,0.5509528812989197,4.83491047670601,2.6325159804863265,1.011617176202896,4.893147914236616,2.460606637891218,6.342823087872325
1.7645720361861428,2.110087996048608,2.6898696605773535,1.1183854058825187,2.305912840813624,1.313447070907486,1.8647472150005058,2.2254701045572594,0.8897978348384654,2.321319240967583,1.386229446827405,0.2948803531516484,1.9248934366850763,2.528644403872444
-4.311995637281697,-1.6655289403382378,-2.7401744570215865,-1.655532726213335,-1.8827765443141173,-0.5468386720594439,-1.2911320173103606,-0.529358421963964,-1.2216818603100674,0.43224800465628666,-1.2811751493528525,-0.9838749070972519,-1.4504188202587533,-2.3852496805713113
-5.035845464413114,-2.623951404067079,-1.9009592890534095,-2.4047027175902187,-0.38144338469887984,-2.2046978984528605,-2.304642696003426,-2.6200794283970286,-1.8309681800845237,-1.2578646609010984,-1.2094981392217337,-5.375810786573053,-0.03496923806841501,-3.5821582493898596
-4.707838283723619,-5.809947495520987,-5.677395286153977,-6.350989569680534,-2.7288528312292946,-5.214369573186102,-5.2450303898716815,-4.86772064729139,-4.803592496351895,-6.408998739988409,-6.385844892291196,-6.401993046471661,-7.1499504893243655,-4.7620585848626735
-8.734897500992938,-7.313652564130588,-9.628897781700415,-4.71567048485309,-8.263015254228387,-7.543836411135762,-7.266396918509395,-5.200818496904709,-8.022260627240637,-7.373702398556395,-8.855753391346408,-7.31750379996544,-9.215736274367924,-8.824589899689567
-13.536686563040114,-10.4055180355737,-9.697866687359747,-9.438418471327068,-11.080786373324333,-11.228339604035542,-10.043139904860775,-11.647166692733075,-14.156714435244586,-11.748353238993761,-12.251330979233755,-12.875760344763302,-11.421886723136954,-9.87226274105982
-13.55733522484913,-16.189001811836974,-12.119631099486545,-14.80486313063541,-14.015699724693068,-13.828165694196713,-14.660737993095632,-14.778863078965216,-14.882773052106556,-14.866710191682012,-14.794629059870834,-13.590909612620875,-13.903182150855468,-15.09916586992092
-17.101495120926558,-16.160981779826585,-16.240160070139314,-18.82417559466753,-18.60113067241408,-16.54314679693735,-17.72694252243887,-15.83915318835371,-13.97483522952807,-16.31252261467539,-16.51753664737227,-18.57242790029394,-17.520384988721574,-15.981937382135957
-22.02524123086584,-17.777628006963052,-15.430952784872721,-20.416488242343753,-17.08457808945657,-16.87081961408629,-18.63308534124345,-18.27139167197344,-18.272179241496083,-18.54669523542867,-19.04683734248341,-19.536226115589653,-20.509373222849213,-18.138965313981682
-19.385903612311605,-18.347205078570028,-21.64334611370463,-21.765967245667056,-20.746754747344717,-20.54580022490342,-18.935239232041496,-20.159793736250172,-21.39252859831664,-20.891965423804063,-20.439521694648747,-18.311069333628147,-21.162649171809306,-21.774624136037417
-19.93127716881852,-18.339702368526616,-20.802660328537005,-20.707158329448973,-24.066627270467436,-23.04484162437724,-21.33425281329592,-20.23967994307222,-22.06596177200251,-19.98910593073153,-18.48967926217804,-20.962767839026906,-20.51379332951502,-20.45167102994069
-20.937509515141752,-21.28511223805516,-20.589540015652425,-22.495275438564114,-22.54416696486903,-19.543029069644245,-20.326726572862466,-21.68202053287018,-20.41414384625086,-19.732328261822694,-18.965371365406572,-20.177623421576325,-19.872872911716616,-19.54669128070198
-17.991668362473323,-19.968308048382937,-21.969471346186243,-19.481493361012262,-18.87595485553537,-21.749214411241034,-19.77762316385597,-19.419371019973116,-18.5196243449144,-22.935714494515505,-17.540948870859097,-20.055829575279173,-20.845049711048308,-21.436824740348516
-17.492373936345423,-17.61774461009753,-16.503513368795918,-19.331004403788807,-19.587348701684014,-20.573925632621076,-19.434850917633803,-17.658725218002793,-20.947636664995176,-20.372324859082248,-16.250780057805265,-18.189382395351718,-22.494906664931953,-18.58975025750983
-15.939809646948168,-15.529458346471515,-18.56928010113053,-16.876793877162335,-17.15337026371557,-16.309357671222006,-16.900585502610582,-14.866988506846251,-14.220202487508503,-17.435223886710453,-18.97656126098184,-19.10305771120647,-19.36834857591845,-17.391295015423136
-16.908113582693893,-15.542684355692177,-16.928933458421934,-15.8521846088171,-15.958333460184226,-15.504752187435672,-14.501169318953227,-17.780757022578747,-15.144886372711504,-20.06886407287815,-17.201304228287636,-16.5262291974633,-15.448836514863014,-15.9992586119547
-16.817195969532907,-14.609141211925316,-14.256134736699323,-15.25925086873349,-15.01247209565486,-16.50689539394572,-14.333920824561087,-12.665182973312707,-14.26914963913998,-15.237659399206754,-15.788015160042743,-15.986920411032601,-15.63199370457915,-16.788313261099944
-14.909298655107,-11.837944566846867,-13.288664332557554,-13.426072671284912,-11.396931336221574,-13.985314160247542,-14.680738353522184,-12.895709749439304,-14.146716777988058,-14.672311209798082,-13.071605645277886,-14.555303506421499,-16.203585431324715,-13.603053305977767
-12.357957964553806,-14.537055945942933,-12.931520506782787,-11.976463396341353,-13.165134911454588,-14.129520701922308,-11.626300913936351,-15.351291250837972,-12.503744202204638,-13.969689332326931,-11.356218105338272,-13.183463027327768,-11.0731608607149,-10.952289175731714
-10.789431888667961,-11.53421200502895,-13.992311875048092,-12.775690509026461,-15.224177997338888,-12.877541778451086,-11.040686700094941,-13.076386090730127,-14.079234672969257,-13.568261051862505,-12.228313295412297,-10.416938067612925,-11.679789729548755,-14.027086461026869
-12.773130720715399,-11.548153406191878,-10.360295933765101,-12.897205919686716,-12.974608312874008,-12.196074265119744,-8.561113641359189,-10.242953417619441,-11.652293740708224,-9.951849116402396,-8.514785969881785,-13.191307728354019,-12.44294180308466,-10.79530895637641
-11.056881367189273,-8.280364406064685,-11.410705092949174,-9.588471692364177,-8.961199735329702,-9.87878400195562,-7.543717124391385,-9.34635885368859,-8.179185611688464,-9.678667238902861,-10.239873413881984,-7.885483384192643,-11.115383392962936,-10.488251544235016
-5.8706536133708385,-5.941029340296232,-6.107365118318318,-4.741509552390317,-6.900240991559677,-7.321515731952533,-6.099286236105144,-5.7562499980014765,-6.929991201891683,-3.976620957590405,-4.022882941469574,-7.159782448555976,-8.343787917249752,-6.021032865685937
-2.262832984821957,-2.51389654896626,-2.7820586651570776,-3.004707336526856,-3.426234422778813,-1.9670842948768872,-2.2783979553915197,-2.726767296641837,-6.207225559412057,-4.909327936028027,-3.1862196927197917,-2.8797892826535474,-3.3279751357505645,-4.148568800884288
0.9676012239824314,1.9102651635433614,1.9427328364401608,-1.3236238228546169,3.1890430914628114,-1.5171048116814139,2.381428362272411,4.266852038275133,0.4003178358277875,4.251547167564472,1.1807259201090288,-0.702866269304202,2.061331470165401,1.1585271887987434
3.0355421502700803,6.848509538731574,4.393261666355285,4.664905675672315,7.6573950373675626,3.9592309005368396,2.8120169278149962,6.107470026924644,5.160354925326825,3.7622882550809487,3.0558280165252873,1.8793480485005687,2.1374087305271456,3.3646735414436413
7.017297389223796,9.993676882413881,5.801357389984451,7.943823856708701,7.660686251714918,8.03152353971759,6.784764544750364,7.794551983717328,6.1559268236405735,7.478500719571133,5.843939191083325,7.56801708744846,8.185316392226085,4.931569024448735
10.35869124816755,9.99131251288822,10.487465821749113,10.048942410032371,9.630594918416264,11.005762046987297,9.850511331869132,12.104794162909027,11.985190822948159,8.805931465000691,11.12725251585897,9.74903832483285,10.908036081841017,11.446589351856327
12.239198914513006,15.173879734730463,11.550243137624518,13.843559841226668,14.26918406695167,11.388577254598752,13.677723835830381,13.828819699235444,11.355768091518842,11.853454075717789,9.305298448205068,14.53447708172905,14.214131143446329,11.109895146958877
16.49039494142173,16.32680202660708,18.515391501896744,13.104249156024158,17.11839061184018,13.539306813900978,16.503880241601443,14.177553973761846,13.167503740100429,16.471232469866187,15.652745757312173,13.781562905914836,11.13622966878436,16.25727010198774
16.9748636462595,16.947453978130966,14.499704161753591,15.270778366102068,15.660056199672011,14.730830055429402,17.27640674937784,16.938343973905553,15.049406560264888,17.20809136072144,15.77376544903381,16.787309646480168,16.12988138630112,14.619081142792009
15.079879385533838,15.139213755571184,18.17944694559174,18.463321734926026,18.85067175719868,17.855967329859848,17.10791413441729,16.242716599270356,14.509161289923078,16.72898558302887,16.77155571106863,17.79911358254547,19.326055778655608,17.917374359535888
19.83681833029756,17.366268604282308,18.77426607093711,18.528450733485467,16.647693622929765,18.610842068649934,16.874907281311607,18.420280251410233,18.34918725258674,15.887520967833188,16.547026351736545,17.907021053662078,16.46511898257958,17.536487579411563
16.95183006878362,16.34004685305282,16.440070904346843,18.440196939058698,19.432713595251382,20.6813785451277,16.55145889362533,17.511707064099124,15.475236411121097,16.652260182940786,16.231357630862348,17.69284480263867,17.65006347485129,15.25256945236911
17.839407837612875,17.977786531792145,17.479335991090053,19.799732365155624,18.598305851279335,17.420496534230338,17.101456093627608,19.034694382214322,18.679289478573466,17.03093079289628,20.061980650389287,16.94441294806672,20.793456482634696,18.164117199786357
16.330247874160136,18.618105818028095,19.26017439502652,16.004475457073983,16.37526729519064,18.641273671826347,16.209616930167368,20.121449775888355,16.856399480805766,15.839548381088672,15.884115211701909,16.232001063407253,18.897623719678915,16.123116354644367
17.992684126565663,17.472889722261737,17.43742413199825,19.469871161090765,16.961739168650332,17.36341601403849,20.293299009950786,16.481276162491195,18.923276913744154,19.788952605241587,17.900409546543933,20.00123184631471,20.37620749016083,16.431003000844413
19.406087078332035,19.07580232722259,18.997106580895043,16.935560073766393,19.522873078202224,19.19405420431415,19.794160012410067,19.986267677514952,17.034933252824057,22.244823910651768,20.50566315288387,17.140448869004942,19.02959195690316,18.760745706380415
20.648947189867393,18.776234607480486,17.964885769662317,18.276636654504056,17.377880325087443,19.56253965674156,18.7701727607416,19.107628002545695,20.586124755226123,19.623912830664764,18.874869016992893,17.704588759681446,20.857893398551898,18.534543199859254
20.970880864661122,18.982189755286093,17.865750594438683,19.325036292642984,21.19812452714654,19.02798841020138,21.862689017354814,18.051265395933957,14.478131498020987,22.814231474518984,18.635682644271252,20.325008763397214,18.1623726960821,16.451892983571668
17.59936792112729,18.58335718488651,20.00032539362668,17.042351875084606,16.319704331515734,13.798557104549264,17.176083540405962,19.500964960576923,17.122379730414817,17.800054123707515,18.860200728628328,18.716379532838733,17.183625288529825,19.29735589859194
17.042529680654166,16.138500822443117,13.178427611857487,15.951256098125235,18.367524777447887,15.326932750016345,17.02675083721667,16.39609963256574,16.885623143762007,18.502772068135908,18.678259432319184,16.13118201689188,18.23604299806871,15.260508598117957
14.12206663308289,12.60084477359515,12.419468836433245,14.389283692575372,14.16457941139898,15.2860489928819,16.12082694525488,12.82192875402793,11.625989386941544,14.745226194074498,14.307494911504273,14.940410806285842,15.128532346683464,12.174310034145226
8.268880906727576,12.04774760591013,11.246956924802891,11.662247072333695,11.608060475820174,10.507580726092945,10.058693723144588,9.81964052596846,9.586334271774609,9.591617208811343,10.65170439699127,13.048434049520345,13.038229767153553,12.634377360285328
7.041024015830574,11.18557751094996,5.160664267175848,9.08480748463524,5.730403614688701,6.813510352263542,8.875032290464238,7.916075679416532,5.895090452808082,8.310323530706718,6.142945155139026,5.983946688244646,7.223722019805678,8.154754191731213
3.946483378221318,1.622982087062625,2.3202342609489928,2.787992034168296,5.941947456649549,5.494157405309651,1.5795199249258074,1.711572873522389,3.452462699290897,5.090203101044292,3.2462052637996397,3.127670247545808,3.5920219788183894,3.861535933623183
1.195598740184933,0.11490464478797274,1.1829527943723013,1.6422398053828673,-0.06343113228400066,0.43680099386974297,1.315920280873406,2.338606847915613,-0.8398203219481115,-1.5485724503183087,3.093023519918244,-2.7449898757787974,2.063417024850509,2.232174732638197
-2.7243827484645595,-2.1943090655394037,-3.935652177478291,-1.4566108966206672,0.00343649209764596,-1.8176810775852974,-1.72602226512579,-2.380812860368575,-0.8427911579585201,-3.176441230812414,-3.5219126124939217,-2.081142562353878,-2.061957380744889,-0.5524947881671247
-3.5043340862307106,-6.6850085580901375,-2.8515441322069224,-3.3889466415230918,-3.614500179473441,-3.5750848442985226,-4.661537792450574,-5.007820791433024,-7.813017505381969,-5.026488288802594,-5.9131535508898345,-5.18104700516805,-3.458208368264134,-6.732158212885857
-5.712022228582297,-6.234859131838819,-4.056337901068395,-8.18230437717013,-6.107012538854371,-3.999873135988425,-3.5805361352489893,-8.703540354926194,-4.794009096110134,-4.7223277725043395,-4.362727890656729,-4.6666926277348635,-8.598757130875345,-9.274217559271182
-9.4258977900047,-8.589912392526708,-6.292086395108594,-10.409690933524036,-10.509981030590131,-5.778275286459019,-8.701634028112409,-10.578814450060653,-7.7053144661608775,-6.848034344853674,-9.95304865798636,-9.326857685453,-10.51816660558563,-7.214460562077802
-9.708702818296995,-9.771674084775148,-11.921138541592068,-10.387038767678318,-10.220407860633742,-10.026646519294102,-9.237857070170612,-8.789645190884091,-8.907813069819811,-8.628881074003303,-7.973630031317901,-11.461808172385318,-10.618305293151279,-9.15401202130029
-11.925677030137539,-10.6570825905547,-12.621546317790562,-11.651793398720155,-10.85339263762744,-9.915836696679412,-8.06224587888093,-12.249771896756645,-10.73864734688234,-12.524396897593128,-10.514406253342882,-11.895722867867992,-12.333515069548534,-11.081304655477014
-14.791440616299152,-13.487530227396771,-11.816574282461584,-14.955718810762372,-11.862479119842952,-14.66035551746611,-12.394576804056415,-13.271404643224555,-13.109844088648597,-12.944987000399385,-12.408230934281596,-13.453131695314024,-14.823061676165969,-12.652581792282128
-14.315125749659801,-13.10835905774876,-15.843988197995541,-14.65699142697569,-12.881423347445736,-13.735807400940292,-13.793393902335001,-11.097807490079195,-10.9874246419814,-13.253007155345976,-15.102365199923895,-13.955827366299086,-13.541570063240474,-18.3348782085478
-15.50325420721143,-16.09979115643762,-16.5881965248536,-14.902701389514563,-15.313401024842145,-15.683043758065242,-14.475441766530166,-17.99140071037555,-16.325892551824246,-13.717746659106732,-14.155444356573039,-17.956033272036446,-15.999299654466208,-14.19035153654158
-16.957013840919654,-18.41374460712097,-17.593142422101373,-16.936980125364787,-19.533773075747412,-19.34582091153135,-19.603604808358867,-14.748782454271524,-14.84413061114254,-19.102625850795484,-17.11088559479697,-17.366920790841235,-18.642137682517667,-18.804064428773227
-19.143306630343893,-22.6154723363135,-21.480259174883262,-17.453556810764788,-20.1316283413969,-18.050441388104588,-20.272087894857727,-19.24022373625316,-18.323252656118566,-21.4880908649302,-18.198872583171656,-22.063579857257295,-19.248133511661976,-18.866130960873804
-22.652826985553563,-20.84497417666585,-23.558635764308,-19.5678941215894,-26.30566859669672,-20.3114592925988,-19.318245335682704,-22.44105077157466,-18.111075816908826,-22.83827516421963,-21.882547401926562,-22.161744128253897,-20.746271468544478,-23.480051426579116
-23.613400482306876,-22.76350718998141,-22.11735044087446,-22.44722775809621,-21.543298835625603,-21.966218269660224,-19.901706274637803,-21.872099875309893,-19.484715383052993,-26.706605180466386,-20.5237246568576,-23.292758384897564,-22.6535015828186,-20.583802123705155
-23.509824466427897,-20.46392428841285,-21.21281430462037,-20.408355162975194,-22.198801955770925,-20.53344709349567,-21.56485069492296,-20.68200242438137,-20.68318487885759,-23.457838460958815,-18.05080558172904,-25.388542361773187,-18.781786600692925,-21.29506261868869
-21.376509728795682,-21.70838520974874,-20.503115611204354,-21.993706533170737,-23.87200956534698,-19.941997712873974,-19.633035280595614,-20.667485517445723,-19.203157137315188,-21.36036241179552,-21.2513698207592,-20.15055774506941,-21.256798220217316,-20.78537399222441
-20.566318444744493,-17.17489911922814,-17.591338694259846,-19.23844390223531,-21.102141807086678,-18.795166334471727,-21.38588954095052,-18.92370851424932,-18.449842379889912,-20.316754504977514,-18.556606908543234,-19.5096943105059,-21.1099006055494,-16.80055831878675
-16.93411092683421,-17.517563622240928,-17.720163162083534,-15.036414434306645,-18.70505745419611,-17.083511354413815,-16.60775563534007,-17.722177465792313,-17.00062256116762,-18.13009694638352,-16.955677041646712,-17.21272247306488,-15.289779768366659,-15.113285362814652
-13.554765824563937,-12.661163288332899,-11.371001542649022,-12.504919800524707,-12.880633258410532,-14.229564128534793,-17.909888976010084,-16.504613317044964,-13.081010797453462,-15.252177701179166,-13.587071603991351,-14.765313267108361,-15.870251044807818,-15.91508357088997
-11.141421784987191,-9.09935251741928,-12.31074832599595,-11.077825323432387,-10.355903639510084,-11.94811835950893,-9.55768425933336,-13.77514389508849,-11.0404035524824,-12.179317819144648,-11.066236182760589,-10.080655949147536,-12.245022524918754,-9.279500016891042
-6.782999194725819,-7.117006288830978,-9.6661799708834,-7.66540663251047,-8.882967050195269,-6.895424243360394,-6.402487154129351,-8.657977332621698,-8.529647523496287,-8.677283813806648,-8.202966538075561,-9.650698006264415,-6.097453448103594,-8.545142310332782
-5.192402755563432,-8.369379460735919,-5.690479955827873,-5.930883563944522,-6.193041968903154,-6.113153036780135,-5.297441813531236,-5.8993316406450695,-3.7435042451627676,-8.198404008096531,-8.3366907385123,-3.487731460873098,-7.412553414234061,-6.741419353927074
-3.711364809089422,-4.179936416788373,-2.9579380330730083,-5.702979199546469,-3.5897978299985653,-4.269919702657876,-3.7907409929904325,-4.097383819901754,-5.259718451204072,-4.870080192458815,-1.6926723771118999,-5.168837111619575,-4.461196673081822,-3.5964587643027457
-3.5222787216255367,-5.018551987402324,-4.349123720946946,-3.283281479944217,-3.7345138924202783,-3.328484244462461,-3.0327169128577633,-1.5807131408489044,-2.874531064944657,-1.8241503598920983,-4.309063781474835,-2.1100757434283715,-2.0659102821360134,-2.1895639784350394
-2.826121414431574,-0.6132179361171826,-0.1294208049424883,-2.199684684484549,1.4867866536143581,1.590791510805663,-0.8721448527443594,0.23761461002972917,2.908208533307641,1.0174373812364703,2.016570230679909,-3.8845413895895353,-0.5547582148508627,-1.2477339823293312
2.441619804317612,3.159388311150501,-0.8556880410715342,4.070014406250677,1.7763562423347135,2.504321556127632,2.322826495909614,3.7844837197809573,2.7987001905953477,-1.0392855536220058,0.29057220380183857,0.5536947825384726,2.9250412975895976,0.19480684245449442
2.4062662963851102,2.80870379091048,1.607840842061941,3.3067958319181856,3.904765812056318,4.301388669207593,4.497834361550897,5.6075538409633365,5.095282057607471,4.008072982697235,4.272793832592727,3.0963420630766922,2.686146549530046,2.985904231834179
7.293856915057313,6.412889274246552,7.149644709693925,6.196126305189187,7.069843781574674,8.549822682547719,4.695445282735662,5.341480872475565,6.085442272296981,3.707131346697146,2.004758037227181,3.076455540050463,4.75759697336582,8.661416881040392
9.050106910289383,8.659808928880699,6.452277782058167,9.741897748163908,10.056933014083153,8.681156697449856,9.320842671957765,11.967621738332696,10.4306150364363,6.662022629938027,8.192033886316537,9.600241366187511,7.446102894060055,8.142888764055744
13.687415305975279,12.287289338953165,12.547524379533202,11.937028097638306,10.532489857048434,11.70427824320134,12.130050260349392,13.078571435912307,11.968496416346587,10.690895280529071,10.060628900252295,12.698465397867269,11.06533742554112,10.190543525773684
15.833385548186437,14.827299197813124,16.48623384273333,11.976328410313414,14.054345325808756,13.340395187453922,14.003677120935583,14.720237316025615,12.34546105470331,12.907789696548742,11.692923709887847,15.778939652222713,16.56718589904028,13.65404134395015
16.39560771840554,18.913107894465902,17.10028616793915,17.012568154246818,15.132919925417141,14.02547458117429,18.06976007669047,18.73063993084887,16.331767160582995,17.02178796998504,18.58477716915319,17.698940121323247,18.75081573657601,16.256409918877686
18.098516648832174,19.486688411250586,19.552784420277707,17.51311271040378,15.479457923529468,21.569043359400503,21.777656833935026,19.02496942549261,18.27024592990701,19.222359136591443,16.793843025445007,17.518738558787835,20.817890036674257,20.263539710784094
20.25906261656187,20.151500805899865,17.765493174951587,21.927452635962236,20.13262234847576,18.58830436080045,21.470051762316213,24.932251848260098,20.229459619569884,23.602451009584442,18.9269608753996,20.351237200205997,20.455438236141234,20.467695366907932
22.47700910965538,17.867722414531457,20.439202338112178,24.073059161789594,20.599353558201102,21.159845821642314,21.6609014906675,19.642818756163933,24.413876233103966,22.937028405512635,21.171581756551628,21.077000719908003,21.73379459377561,22.504815790728365
20.450684377317952,22.384205515194047,24.129045663376893,23.493772005122977,23.112549882302964,21.508373324533235,22.02939584275089,23.176888028622315,21.834500369530776,19.722277397007442,23.4714526995333,22.993617422692736,22.10341292134533,21.245485316325667
19.056392962002086,22.80772502573241,21.167535073917264,23.534290212786562,19.29327723902948,20.905997938455197,21.600772029775097,19.626050101971437,17.78549796701406,19.6384077372846,19.942076190435213,20.45725866869,19.3541599582924,22.49158883033273
18.193678405292957,18.95560381055892,21.10395132878884,17.295594472137314,19.113609713989,18.680659691317587,18.3412398189403,18.10263911959039,18.238039039426404,19.106377846539296,20.03382519274722,22.32052763010191,17.28479732936681,17.571817676451797
19.791831803217775,17.573045179457388,17.82205769765764,16.963002297286508,18.259565897911386,17.03220344421233,18.873727785322313,18.863845675745917,18.193617804046376,15.243930801173573,19.037009377593627,18.08045351431309,17.345782519377842,15.739543607856948
17.94379680521174,16.3819887571289,16.829401632263643,14.585184862637488,17.805537908193898,15.750571808373174,16.412359752099995,14.78209018609935,17.509954478296194,16.95529595187208,15.794594715205761,17.198576226771795,16.495772973153954,14.275385590670096
15.010681304315098,14.914750035790023,14.1921904459585,13.67091621050994,12.062680051681905,12.88567248578089,15.118325474449168,16.14508149418164,12.595683273527186,11.671896300125637,13.133270558313269,14.932509142044172,14.066287743153092,14.321154158683589
14.271050231278847,14.327240187453038,13.916377876860539,11.78002206386201,12.670086781912417,15.958435094576263,14.33669819087454,16.000770626400115,13.187917508711447,11.264189908048252,16.348376921719847,12.966606870693342,13.886708417010187,12.485128799758023
9.99533222319717,11.649973305732189,14.912687067123008,12.628728448621867,11.551511217924872,14.000947141975306,11.382420535480387,14.055659704421936,13.591979140724831,11.58177363318001,13.72698087257836,11.206074682342907,13.371699969702306,14.044169405495484
12.902152596239503,10.992850316095828,12.59013002390939,12.147879153697538,9.52407170083297,10.341013435922841,10.573207378293771,11.13901514946812,10.599779459808154,13.495206359853213,10.717258038330092,10.740101530928662,12.80613558504129,9.845153204252389
9.475991751596565,8.946568065084556,9.734637649425954,10.400185876204443,11.831154137259361,9.613044063910392,9.77762143579866,12.038617876169578,9.766919804779796,11.400511984670215,8.57289081762816,13.053600270025887,10.408412734203393,10.627312730772761
7.46351376601442,9.554747579807907,7.844238109310289,8.020941847003838,8.666886321927453,7.851663947627771,10.56876877961464,8.407636911926419,6.109861371597201,8.344950796983639,8.369157459828664,7.013203990651984,8.12310932256671,8.006405345474185
7.619123849146396,6.036694683531344,8.121313044846959,5.112641511337042,4.463825374545239,2.1590093716925702,5.910833932452779,4.000077970348203,7.714525051961491,6.236920771486351,5.0448686648640475,2.1792428935098447,7.134798423500259,5.888733924811786
1.3816857485267364,0.23852126884052138,-0.009948586608694132,5.280147735943938,1.0770839090094242,2.443896044632483,-0.20290790819716564,3.515324968258671,1.7704790670169874,3.571344266190211,0.7536425929854682,2.2444798436503755,2.261907313966285,0.5925189409582625
-2.114850166851248,-1.8217650707132331,-1.3477114917579516,-2.852364470845367,-4.3947775039567,-0.7049626119497157,-2.6687642780950194,-1.8494417147831292,-0.10503433806516105,2.2446166255797477,1.552087790225493,-3.1317943769255523,-1.0842354660528075,-1.7693126126979275
-5.211262290131966,-6.361478302819332,-4.176498218507477,-4.931765019984155,-3.9391616658822772,-2.3450756665830252,-6.596957709461938,-5.768797824203826,-4.53194863054124,-5.433310758549172,-3.2861200123811276,-6.472786435526392,-1.6444518279195979,-4.8841321425110324
-9.349825943552379,-6.252953039000405,-7.994576613935395,-2.922002902794076,-7.112873926812163,-10.174861315603613,-7.503534558075103,-7.889374713676561,-6.117056669883441,-6.800865752391396,-10.82456581358695,-7.668475208545289,-6.960070318552026,-9.95145812658064
-10.650846299788565,-10.168357033223723,-11.843507158040365,-12.143828371185393,-8.800292029166858,-11.162374035062776,-13.05792129535368,-9.135905447181479,-11.323606019473377,-10.596485201294698,-12.253331514080822,-10.619902641072455,-11.093135696972297,-11.44889673464547
-15.279033099288041,-13.563868245035525,-12.783651605482483,-13.435211709355388,-14.467634462779277,-14.272317454525492,-14.19808454686936,-15.024842235312201,-13.516127964041262,-13.755630547565437,-12.760331896623654,-11.621882032756698,-15.594116631531309,-13.006361746581614
-15.83059956574125,-15.495248167103341,-15.778806742255952,-15.225055024224888,-13.715572587050406,-13.129844218556569,-18.014471376005517,-16.454776162332205,-18.012977043540523,-13.780594548594715,-14.11174158528543,-14.224673772107224,-16.24088976113808,-16.436711854684205
-15.281015800951645,-20.409714396281046,-15.863835840933904,-14.918012461448395,-16.339685846403082,-16.869904112924235,-16.798837184906944,-15.451928780470572,-17.22595584480521,-15.30188516107993,-17.485642545034413,-17.15924502168408,-16.081204648426315,-16.60229025781977
-15.883142744256725,-18.63287697504592,-15.729498995440382,-17.342797628863863,-16.22505515609361,-15.313646134913919,-16.153307322943377,-16.868781369812627,-17.917698077532865,-18.43911722390574,-17.00349587903693,-20.018411425402082,-17.482251048077877,-17.12702674332682
-18.411250600786214,-18.32264969169046,-17.07564858795175,-17.844117345323973,-17.201836878234285,-17.511603738089505,-18.039719282356028,-16.930035041417963,-16.395268017816914,-16.975074807012206,-16.86635993129829,-18.17763339849446,-17.726153508076663,-16.454217243234336
-19.899522019495016,-16.692964180619242,-18.562603525884615,-20.19937622106275,-16.779528457224536,-18.514180434086317,-18.063726572601478,-17.567612783802833,-18.089885123127324,-18.969652698228245,-16.892710928308325,-17.556633795187917,-16.524355138778777,-16.154638112173675
-20.239329709208405,-17.007075139213878,-17.47298221132615,-16.400872374790005,-16.89384713770603,-16.83947975912522,-13.119726442245742,-17.509371402717452,-17.562884374423287,-17.995872458712633,-18.862384215137304,-17.635890864829186,-16.37730105001718,-16.945478347016763
-16.602231041720994,-15.937767161843356,-17.384477505952546,-19.21663516152811,-21.179049316739846,-18.679830682555927,-17.413693709284786,-18.375114762990254,-18.23677616991008,-19.065080923150102,-19.609032115396605,-17.135089754642177,-17.166527211800346,-19.54429399781234
-18.59009482056469,-17.960603135996337,-21.35861487785949,-19.737806703845223,-19.45941948680486,-18.38792948915435,-18.54519811952146,-16.91179656439785,-17.187178869373618,-16.257981370481478,-15.293806461616342,-20.148268050144964,-20.085575510532895,-15.4773608563987
-16.462502660182054,-16.37075564220223,-17.41476043277425,-18.508936991132472,-18.989400100464454,-20.125746590252692,-18.6735801203904,-18.042004180611766,-18.169802682250648,-20.094822644491018,-18.68327948780272,-20.479817814173423,-18.025060595597385,-18.088254932604002
-16.413615540266093,-19.83029702270485,-18.605847899671193,-19.460696570790596,-17.787259200338543,-21.032651657747554,-18.622243088177168,-18.501103552293365,-19.36361391197732,-20.133303356537994,-17.353934510952122,-16.295897973228797,-18.505266388184044,-16.678337327351965
-17.405811951962257,-16.986626334528594,-16.330734861885585,-16.615177301682472,-16.81763282175345,-19.001067283949503,-17.119342226097476,-20.184450218839388,-16.30984260645646,-18.894894826700863,-16.14209517751386,-17.0368591385159,-17.233415952196825,-18.73978802427297
-17.129184284627975,-15.969732452403893,-19.49087038956589,-17.975177407895334,-15.001008519075235,-18.692895459735425,-17.644505662008072,-17.297754399568017,-15.551530015129972,-16.961088730474497,-17.96757331346545,-14.538265694545267,-16.810595831477492,-20.685462828391195
-16.40648601498813,-15.458384421763956,-15.402916825410534,-14.610082297831473,-15.633061598402096,-13.44463263074269,-15.269014375015198,-15.894094854769719,-14.830271572335484,-14.954636118866517,-14.941873180394966,-16.014364774112373,-14.601657088454726,-16.60544847942936
-13.656143148208939,-12.77759606550729,-13.10274302797212,-12.184660210521551,-11.769165359774268,-11.77460755141987,-12.71974639719141,-12.933688869762168,-15.275489226223971,-14.686109365590344,-12.366867069828412,-13.323061931345952,-13.391251832972543,-15.913131900733342
-10.420071300681114,-11.602723750908332,-12.027234340524876,-11.46866054064159,-9.37191705499662,-9.88846538381064,-8.980133319045818,-9.424218045201865,-11.416256570969471,-12.54706777107109,-10.727569318986916,-8.921294094815817,-9.474916129185555,-9.47504290685943
-8.421759756537762,-7.388421499170826,-7.132692616252779,-6.092371130691751,-7.74714198042098,-5.948244052170109,-6.134637594503298,-9.100673272757556,-6.45905187592624,-5.099433316807687,-7.929002130729575,-10.32772883183879,-7.030175604810196,-8.117190165479663
-2.2049573421363835,-3.6790721002670166,-1.721340469184378,-4.0399637706134826,-3.878008528484373,-2.5453721454439346,-4.30079981157255,-5.201587445107305,-0.39740662437581786,-3.9068064098787243,-2.7549236843323603,0.6276076228227039,-6.353755127290455,-2.9385033609124376
-1.940419247052966,-0.5206395581684001,1.3936759801056418,-2.1731348792690914,-1.603376777724941,-0.3446864109111004,-0.7198770169427603,0.3033869374826962,2.1313786315323218,-2.533900058037188,-0.7286809825909056,1.473862678548609,-2.093195919241297,-1.8622607751262636
3.047574310816211,2.2578829498317656,1.5136863103511686,2.296310995839804,3.730996780054097,2.6621029467351667,5.9074343076257145,4.6843057686890095,1.1182879240140684,4.026421149893943,2.295902065363401,3.2653962109347012,6.031686128869895,3.6480909667852996
4.5137205356980985,6.936672408467927,5.2848593566256925,2.5383770937954786,5.4866080915748565,5.69382392292879,5.636705359867688,5.74410454564127,6.020812264057212,5.5102964809453026,7.152848172671585,4.251117155212989,7.041535352812238,4.417071287609862
10.147374669010965,9.114542343810912,7.591697280019838,7.71292609896969,10.397358864709124,6.528972892780809,8.102223928715464,8.380450842974321,5.448409048196718,6.767960336366707,8.5563658345443,7.778821671561758,5.519390902144167,8.37298746531983
8.57944041143849,7.763246982841266,9.383893486937291,9.978236646278178,7.097819860866627,7.507870281484747,8.643996070065334,6.801188838708245,9.242780870865042,9.923133265281862,8.148242145783236,7.545211467251684,11.445420075827073,8.002004894314677
8.0730454185193,10.692462824493749,10.498483704625695,12.417703929813698,15.451048115027657,11.336897840351105,9.488163021637893,11.582654593024268,10.335946148391,12.890613530903746,12.312348617300687,12.834279475687593,11.74686260428156,9.938868679569477
10.551239118551678,8.716678557596918,10.842410415701307,10.68267737861372,12.276982825696487,12.645537971753752,10.553763896787485,11.111170793903959,11.521402727278236,12.329393382642472,12.68534199563793,11.240852849100847,11.535872276140266,11.49955079611535
10.885540611346755,13.794639589197722,11.227210709703272,12.420025603789316,11.702463284611639,11.512652672629457,10.897461992273186,14.539918835733209,13.219523285979218,12.156855118890235,13.872857904990092,15.191250776356089,13.309654407836275,11.515320188472494
16.05742409469283,16.058281179341726,14.277329612380809,15.86334608032998,14.286035712218956,15.100533029343463,14.860556153282067,14.584186685110792,13.058449495632166,14.852741619794196,14.731641614641477,16.50583542637053,16.372124781946994,13.493832380789328
16.02216113081251,16.66792489071774,12.754593709545603,15.553066288865065,16.90493677167537,15.528887493994539,15.86198699333226,16.255211159874246,16.97166933524003,18.104691372668118,16.998793705466618,13.976788633440204,15.615616640222258,15.657841215720762
20.501710071851235,17.333424365378022,17.891824149653193,18.973797976957385,18.446115835901253,19.20374153743081,15.810697358061557,19.26681574464503,16.05098152913788,16.241554044843756,14.311283029262345,18.874771936709394,17.891078904119908,17.246380932338088
18.26242169997821,17.646666812530775,21.968016824658818,18.233661150699653,18.608354030448158,20.114033278979438,22.673609536922545,17.398884157349862,18.23947780462555,19.86245631748072,20.627441086281856,19.44082351085628,19.73921861219144,18.20324809547318
21.065892145265195,19.897129498235113,21.668711017910873,19.478861403871147,20.237021198623154,20.880314175068058,20.96752682470033,17.500263713815297,22.30493869576465,19.933431800599514,20.75292967028186,22.423710436962672,23.420965093128498,23.689701596719107
19.535311597515342,21.525172753982257,23.698984222958003,20.6310239572355,18.631888468716628,21.71496234997223,22.20686501489145,20.087459501709233,24.616066015167092,22.091599473136128,23.552301679565936,24.666679523905962,19.430425294499734,20.055812307848008
22.65616390134012,21.11404317846184,23.52243247722064,19.47412551098901,20.875689399447882,20.259905863160757,20.524379114852515,21.478891412340083,22.147704097717774,23.69184056329823,20.358684437779544,21.78346834671899,21.585068450883828,20.466523740147615
18.393237676268317,21.264715535530776,20.896394789523253,22.895699337427857,19.74639721107587,18.791952529163122,22.911393591477275,22.28235204008523,17.972216055532744,19.145314177667615,20.559850050769036,18.755035134262215,20.661941505340756,15.816304578530795
20.24480777664094,20.12524272451408,19.044831655176566,20.63019766197621,15.88594577303061,20.682990543824612,20.440617594328696,20.37910742569561,18.21667338415696,18.09473779875224,19.663590878806332,18.351484653801165,20.168069165430556,17.481440658688946
16.15435008479315,14.651557749636801,17.13526778455659,14.70755840928705,14.848696807731738,15.6639950026354,16.960100342650136,16.68173388914985,17.395172529104226,16.309440140546762,16.524505208906305,13.708603714429358,16.578385437389215,15.256798931877633
13.592684846560786,15.886681442833305,12.025794095084198,14.202497501055351,12.543168426229967,14.21140827388071,13.79613201050347,12.452793726248414,13.226539807793777,14.759263637744862,10.825627766742478,13.587520575218255,13.134365443403542,14.354140818970507
10.964340437908952,10.970636803811274,12.695473043380492,10.895730468486168,11.726921357289264,11.956182048545891,11.715102888233433,12.307229950286988,10.289198394300033,10.8152351693501,11.032184650675367,8.912771649658536,9.661199105661016,13.396367708168519
10.188569363441065,8.872171286385125,5.42311811117751,6.561069490148448,9.352179873141015,8.107423186379233,7.315259635383087,9.469895904007618,8.353906256957867,5.564235109571559,6.69852996046072,11.130252034384227,9.326348213683978,6.717483784137469
3.786712470148749,9.16821789492727,6.479429416588886,6.284975412659597,7.846056693413448,5.382601911963908,6.473254987084957,4.501571437020186,4.51294768349888,7.3219691559313675,7.064198485573868,6.843317485984281,4.6434881076231544,5.728577812287933
2.560478380102859,0.8591811837329439,3.4573631697210994,3.4194092538069807,3.5795456578878766,0.826845406237724,3.461097747358024,0.27092239806673524,4.569252400526537,4.005999838631309,6.260524905666588,2.559896081291178,4.432402338005078,4.533161446723579
1.8227105628435367,4.941923937589295,3.866008211173292,2.2869842268974026,-0.9212310001917163,1.513190654173968,-0.31374359790304385,-1.0437424464427136,3.143382095474132,0.8585982446827501,1.3710384957212038,-2.4752796265355617,-0.26271568620826824,1.332576863988634
-0.2715621157852234,-1.7668874589291688,-0.3080936476923215,-0.21504743137271565,-2.4547376665163396,0.606828864365424,-0.7989248311192372,-2.2563425995200435,0.3823403554570453,0.09231988569473543,0.7818470330231702,2.2349682083238993,0.3634639174057262,2.258614354811765
-3.986855025533938,-1.751647917844465,-2.2180996790318477,-0.8481958418349873,-0.9250871460742842,-0.8481428564642912,-3.7880730207148092,-3.356652716416262,-2.3839579070953585,-2.0964060752052145,-2.271940366149343,-4.010166543942814,-4.505829343827907,-0.8948766414643718
-0.9801332706395436,-2.2856300104883767,-4.20741092957167,-3.8446195207618743,-5.213448121277585,-2.5163860986879,-1.1620020565071387,-4.405834321303844,-4.954843695825836,-5.727571918521971,-5.430364729028781,-0.8684727995958994,-2.665284801506459,-5.894877238887991
-9.251053258557928,-5.128446569494027,-7.096485504476568,-6.046719388106283,-6.530342829940718,-4.3299004391981,-3.717461414173251,-8.06842839611492,-5.071287898188441,-5.8391020260751505,-5.804420250837543,-5.081396783764732,-6.289842795382099,-7.801854376335402
-8.25607278727492,-9.604362500278633,-10.195037785653241,-9.969780232212383,-12.157940594832072,-9.707749968090871,-8.00409307940622,-5.895627491033268,-8.820527504251364,-9.284604169745736,-9.269332173148591,-7.5640423881097,-9.18981477519334,-8.321092359578513
-11.908333994070086,-13.381301392936733,-9.933374257672071,-12.286379147684471,-11.663356651154325,-11.458625344477465,-11.767800303300417,-10.505589032394267,-9.97094531042438,-14.608536846963922,-11.983918783429402,-12.480014924132341,-10.520652165276138,-14.229040354502143
-14.9588885183806,-15.447063769937678,-14.269366463945076,-14.654494271893064,-14.022082353638549,-12.917751881564325,-13.101510489893908,-17.520814472276435,-12.784562196477037,-16.14475344359516,-13.091914809881718,-12.86066683602893,-14.931214373043249,-16.11505663898872
-17.194990453059127,-16.389150148836762,-19.890739298598,-17.00049751926307,-16.865862213835324,-19.12135224225893,-13.427208583903287,-16.473915822672673,-17.760199728797552,-18.360457565941672,-16.91754800595056,-16.044211284840426,-15.737879114869148,-17.981602317999208
-19.75670230782262,-18.957235166274863,-18.50951466589408,-20.776777700618474,-16.048824793916275,-21.534033442012326,-21.40062108975846,-19.167312747990458,-21.752243674417947,-19.610566656680604,-19.458262951126724,-21.37920985333617,-21.65613894938911,-19.639709833384245
-21.572016722514082,-20.88936070502747,-19.243853059213038,-19.162291795883668,-20.109137443410898,-22.50461377948858,-18.56444908865471,-21.162900867821776,-20.546966284735745,-17.394982176506343,-20.0089646231921,-19.413746349315375,-20.157935482764167,-21.470834334893656
-20.1890563613342,-21.669452621459513,-21.833561969420828,-22.016097226919875,-21.143898113358375,-21.695680811981592,-21.758556231640522,-21.088257529919485,-24.24693632960912,-22.952709521829593,-23.286738456526557,-22.2576182616295,-20.04850576473582,-21.766416554420143
-22.807535885520654,-19.763452003804957,-20.4384374257543,-21.314987452038306,-18.59007513783138,-20.64594205985566,-19.616890519830473,-21.04979344159124,-18.256567368294505,-21.698031976161076,-21.905558160579254,-21.19591911331606,-21.342137902401443,-21.176301085717785
-21.607694662245795,-20.902421167096286,-20.296764778239684,-19.22518923099301,-20.480999662079807,-20.324054708147358,-17.817888522756164,-21.728650887220684,-19.911978173468928,-21.63429038037656,-20.202070941305998,-23.75973648794333,-18.946586898680966,-21.01965644325399
-17.561871647249166,-19.3668053302092,-19.940068488910843,-20.847396393523734,-20.22362999155624,-20.48133266456383,-17.792645853304286,-18.46215710659698,-17.949039841797013,-18.123232729195312,-17.020410861837547,-19.670794773386454,-19.236232204906372,-18.089188530546785
-16.184167754970098,-16.26234470419932,-20.842908379312973,-16.03811727154461,-16.32559026192084,-21.41150703967267,-16.93810574802748,-17.66622764593428,-17.71418482685928,-18.327922341893313,-16.35003512368133,-21.05973057711226,-16.36549933952963,-15.029191408038502
-15.612429306749778,-18.76378051482209,-12.782281087260804,-16.213333934390757,-17.608524070580508,-17.28369939832841,-13.93695651560713,-15.77038405157329,-17.050119734145564,-17.994915775602895,-13.785078997244419,-14.846058589194577,-18.719757435848205,-16.158218855127817
-14.968689136039744,-14.220528406960515,-15.986234595540754,-10.922246239280819,-17.17020309235601,-11.737142097967698,-13.54765502317238,-14.803192116682464,-13.438880306160017,-15.337074594173918,-14.248821023459634,-13.421973854510098,-15.794789360927064,-13.625299160244305
-15.212491909544843,-14.565883015465829,-13.904725183232845,-11.323671058155066,-11.699263254610756,-15.807429589914562,-13.660431524264514,-14.91707791837367,-15.72715265681999,-14.9170759400481,-11.784984143180022,-13.984982612655946,-13.902254348907684,-12.038937067842742
-15.678475796167678,-15.104969692066469,-12.618352987991871,-11.66484759081505,-14.196296271910873,-10.646436407132855,-9.800216875886726,-12.445424786205194,-13.439950860524553,-11.966017542894761,-12.498883046978127,-11.719585397024758,-11.717529086042887,-10.786082958084558
-9.842224510901021,-10.164485791881873,-8.237053078580049,-10.954903382441055,-10.897111023454576,-11.835080596119694,-9.83338770802737,-10.770743216715676,-9.473604237477822,-9.460271112570469,-10.471557394434573,-9.028301300557843,-9.659622575163864,-8.838548911653977
-8.06324466238656,-8.356625752614182,-10.765774530102144,-10.062078582936154,-7.877826118950478,-10.304487552627807,-11.289934964288,-7.018496001512457,-8.527913724105606,-9.849903780066606,-8.475557941683523,-10.405227450289914,-9.994769689305013,-7.68006447955267
-4.753601277431504,-7.193948154267962,-4.935420314714637,-7.122702509505628,-8.442063756168544,-7.749558681509844,-6.184582479186538,-6.109265387032467,-8.435325080069575,-10.32105871641324,-9.154523294002136,-7.990353559311068,-7.690190139147049,-7.300085973210903
-3.7224293743346726,-5.269593594269052,-5.243561770002361,-2.997288278765627,-5.62501333922757,-5.658998525415916,-2.1764213728383686,-7.411786022623674,-5.98016246318935,-5.577800079666374,-6.064137802049831,-5.521888119483444,-5.249547077390313,-6.082821125960642
-0.9724765236293584,-3.589170131318726,-1.9066632835403703,-4.328787317574767,-1.3421949981917678,0.010028217663654804,-1.6580460715846632,-4.362921045371024,-3.3970233243319674,-0.7736529355717372,-4.673180512286828,0.04015284582434431,-0.7543218737218429,-0.7371431406107147
-1.93304345913025,-0.7807839812495032,1.1307885081999514,1.3938075537147414,0.3609010308943168,2.4216833198644947,0.7811160813410525,-1.5414428077655138,0.0077353196795817425,0.005692807489045215,1.9255621964064953,-0.5605402576240843,1.4410136604509574,4.388928070903626
5.224624784880721,4.097393393065526,5.692295126532588,4.600993299885757,4.504945953551412,7.4455118035410655,3.3922596386182944,2.826158459944337,0.9068615706031853,3.0793106420899425,3.2954342638509875,1.910064233915635,4.223290281904572,5.55883070659333
9.731683879301894,6.529424296592101,8.477997620084686,10.433405895230688,9.015332726984184,5.987329672574978,7.821600079617159,10.528897490090051,6.308456475772105,10.387882896917514,8.467202136424484,7.0852277239476535,5.535050796562668,7.259820238043481
8.49302571598815,12.133811315939143,9.365989503153587,11.994531635982414,13.719031641222003,13.265677746022908,9.914192180602168,8.461813307897298,13.648478216054547,10.627417336730502,11.194017892804194,10.337590619642729,11.764601675471457,10.888778411655442
12.713957376591235,13.17420038124012,13.975895425977612,14.544043618683359,14.80728387262187,14.291390156378645,16.112455478216447,14.853452723471186,11.750550324395142,11.631329296714382,13.807599417108475,11.817994246479273,10.945137704580914,13.768018890288735
19.832785135210855,14.289379000009655,18.977537341118538,15.841755580932949,16.82239047688509,19.007915202426773,15.46577464862654,14.830977116996875,15.078206071854947,15.189223454369195,15.929314556925586,13.97960828989807,17.620365863641872,16.456082916949946
15.438116593817558,18.05351918244888,16.19859187544013,18.184386600725567,16.71743472546776,15.403549659405192,19.45724249198667,16.020936260551107,19.034291286412483,21.65284707334183,14.545766417474493,19.849272764239835,17.123821174493873,17.1684043220461
17.976474237003583,17.484320156059038,16.993652137358183,21.60723327175286,18.51095670813376,18.685516993637567,17.998147703064834,19.96163714694718,18.217136090505743,15.849838028489836,18.695051570282413,15.732667776335072,17.93854909254543,18.66629948548308
19.836892384300178,17.50903946252988,19.994113879539263,15.622808753021587,18.99717597654167,19.119499137091026,18.284867742563726,17.812826264418415,16.760645822306685,19.22248901342136,19.23547036106625,16.72650080576333,15.862418732660348,17.971472363897906
20.962180931084422,20.915907375689347,20.20689784367745,20.369675840519236,19.602366772147242,19.21252341800161,18.477434780136427,17.420938550178285,16.878163560396676,19.317815463505095,19.800071370538856,19.082222218819467,18.00777349480654,17.37950634817599
18.86342331388358,20.373239314397317,18.85368937161522,19.483884748469528,18.247836614855768,17.99836864692348,15.033528719766323,15.949932356342005,17.184640815585457,21.33820533781949,19.347203966349568,19.405707055405987,18.139321295764244,18.331201550813855
18.46755370811826,15.803603729344532,17.991414380791582,16.67987075259323,20.846473307976296,19.469838579058244,16.44542990863413,19.520942289521493,20.62066217980802,18.18161174088003,16.10852900095513,20.672308312045963,16.447621636264945,18.07724112454219
16.991803324258655,20.94889280342317,18.27189910713036,19.954017315923963,16.554474615919254,17.909924964999792,17.829141639409404,14.637374418660336,18.036398818664313,17.660604853711096,17.853127580688646,19.36314612870557,19.716949808481566,19.725387505236448
17.669111868435714,20.215990064830866,18.77984863259884,17.449682479074962,18.8261523398111,19.069741108729346,18.717643070454393,16.767326289112557,18.222791411938164,18.72422880441666,18.64067245941638,18.244922055336264,19.592420137103815,16.750618902720515
18.1633486224697,20.94883154402733,19.39753443811341,16.80675332793138,17.23684533180657,19.577035085916577,19.308408837349656,16.613989945142578,17.74790756623242,20.3827217639702,17.421572549180464,19.254874399569633,18.534986161465046,19.17161491702457
17.260096901637734,14.519365370250245,18.463168977959107,16.522670538702698,18.670002295969375,15.248541443202853,14.908814607713769,20.421353505085932,19.287067338219334,17.598920957404104,19.132104234614726,15.824927545275822,16.337233946916704,16.494583621311435
16.033384702014256,18.97957770932238,17.692822852073867,18.17868085709404,16.109940271935937,17.281294312929546,16.060404757324946,16.664092801871718,16.092558318590054,17.566561830783325,18.450070111983198,16.68875171595907,16.2014515071943,14.646452239004804
14.00643890027245,16.535145924294135,16.937284575926455,11.267452885198708,17.316423236222704,16.607204127004213,13.935733357013167,15.097562659258754,12.969466258362619,13.032411624500709,15.309370281705498,15.704871203688127,14.340360915226908,13.098477345547149
12.216418804443318,13.802099750082819,15.150553577812905,15.335036069815741,15.411155768220425,12.292227664439041,12.789001930104803,13.75061620484486,13.539796010202991,9.915016451433678,13.418356140167976,13.512658009811226,15.53255055530126,12.219806180646927
10.671731312455004,11.066017239101457,11.515425357950782,9.345837660793244,11.29923850530212,10.06847620085523,8.865167548613108,11.775710770428127,8.20807756421101,13.861976790000753,10.708881636398786,11.587222557928808,10.473787033587508,10.53030420570255
8.46455136977753,8.667488931687666,7.3727652726737825,6.10048932275257,5.927163622618421,5.2111488872844625,4.810041222592165,9.897190222351238,6.436828257778046,7.766487550179984,5.814189238351577,9.992151006831111,7.004046434893467,3.532176689572741
2.4466707248046036,0.9421601293398032,3.9452863169824637,4.035458596358003,1.2992500145601795,4.651844960671726,3.1308813414492613,5.513423293946887,2.5916251309531404,3.06490098924305,4.804333289853536,2.4771435847403422,5.1939028904378155,5.371900324834812
-2.9116562350965394,2.116904738461436,-0.8522847035721862,-1.4252178653501977,0.6083679167769358,-1.5048094671439651,1.3941373934895003,2.0839790656506083,-1.0790510787700272,1.3270137501558583,0.3887992195620648,-1.3613138437578356,-2.460293971320831,2.1129339866792156
-5.823808582717019,-4.712837394198398,-1.5590766661964666,0.19649831112137672,-3.280112793769356,-2.9076372347635275,-4.689707150215506,-3.8942330402034573,-4.452753571440855,-2.409684503802214,-2.03654011227042,-2.8362155850518542,-1.8005562703549245,-4.63652439439209
-6.8816186011203655,-5.596153555814397,-6.5230224536109604,-5.916307727087714,-6.867083306314226,-8.458819226975423,-7.099230336031486,-3.4439580251901423,-7.780871641048677,-5.71035740458894,-6.17822348987631,-5.943729567969622,-6.836096005001811,-7.060831454194507
-7.697795931458392,-9.55193141542712,-9.059793779416163,-7.416552816242065,-7.719581789237514,-7.406365639122317,-8.517005533321926,-8.296457449349447,-7.622782456335783,-8.381065546805257,-8.58475482227253,-8.552111235889019,-6.898255193522368,-7.803425159942703
-6.795902981005739,-11.956523563202023,-9.493063592197823,-9.674114351330179,-10.47960083264175,-9.295882682649653,-8.796428059497288,-8.0706203122047,-11.600809374427069,-14.380799104777246,-13.823778695223725,-9.534413955535037,-8.828555630245244,-12.97851896020034
-11.04743119728381,-11.782127187691016,-12.068497020505003,-15.020596441554517,-12.50313242794647,-11.562714532226458,-12.112896213008034,-9.26805375475314,-11.866347745579878,-10.437158069711833,-11.415916979301,-10.871089878528766,-11.391388856139216,-13.07460480130051
-14.583089615402807,-12.443249632350964,-12.394381668406165,-16.415263100086857,-13.46911805147235,-12.80523576687542,-14.248452702616476,-12.083901792406708,-11.348988399960213,-10.738823247224033,-12.493795938370774,-11.298730109557024,-13.168647653513478,-16.057776650595
-13.879985122949607,-13.286675735146336,-15.567789451548146,-14.389296016195427,-11.924567406032223,-14.082803578541553,-16.5338395789269,-12.75172346003935,-15.318824184289376,-13.802797048628667,-15.758798690046168,-15.541233911938896,-14.403721872814447,-16.244172478342882
-16.17923139913221,-14.66656257326863,-15.316369878058223,-14.119634229110988,-14.9953859991951,-14.067203997682578,-12.26519521549125,-14.10082223121382,-16.161379735651654,-15.202319641944447,-16.5646942958972,-16.01998678991916,-10.469987015517852,-16.69829633728743
-16.868728739519007,-18.491930331028207,-16.79874038367461,-17.472139418466554,-16.34032085774738,-13.72217013863235,-14.58436298532134,-14.55890737422765,-17.031028606110436,-17.552700746612448,-17.185463580449493,-16.089996971149954,-14.818359652284736,-16.50585949595431
-18.39530586500478,-15.177370117023111,-17.176911010598214,-17.624976049722537,-18.392900221088517,-17.789046250985965,-21.253081830417596,-19.08000747191559,-19.023120361905953,-16.459505769028468,-19.716215765874395,-14.568101232619032,-16.783307290797254,-16.761296265693087
-16.823988884618092,-20.29967696925203,-19.665076324655825,-20.89185852750849,-18.18595715772706,-19.57962809598066,-19.72657621544429,-18.390196922062145,-20.330385940524643,-20.73586094869406,-19.039495305890874,-22.410413827919722,-18.332339885084814,-19.89398508436907
-17.098295244190687,-22.4732385478245,-21.44788485458945,-21.677565432843096,-17.6633559723018,-20.581746060083937,-18.60794899927111,-20.828144266354066,-19.085315223819055,-22.638820689741642,-19.996692676084564,-22.65651500568302,-18.892953370812442,-18.89838369993993
-21.43659850194335,-19.233222366596486,-17.957919904395894,-22.975785710715126,-20.396236395952045,-21.657144907979585,-19.71965106015122,-24.675889282489102,-22.48980061048116,-18.935334795265717,-22.338265871676985,-20.111594400028356,-21.31971954931422,-21.658659570166016
-20.8082500342536,-20.17454573885763,-22.267097100282992,-21.36892663974324,-22.7104400406495,-21.059533043688965,-20.474086830703495,-20.46441861834471,-21.28671410651231,-22.79140256028674,-22.668382359759278,-21.89986755768986,-22.73951124375321,-20.97535221183959
-20.746402364013132,-21.1799357077307,-19.823713042602275,-21.049399790323903,-21.98625484897283,-20.445249253901334,-22.835636608938465,-22.63776449617033,-19.19936763523583,-20.650268988109154,-18.54202888104697,-19.267934159891855,-20.234855959858514,-20.759591565028675
-19.66196060660135,-18.972275596143998,-21.999677032516136,-20.618467365909346,-20.61105241648478,-21.171738225027536,-19.616398286492856,-18.565328441343727,-18.440139964895966,-16.412295798342942,-19.21018969253608,-19.371289043964207,-18.344861104786876,-22.016115864316664
-14.210060746461451,-16.91867595940328,-15.200195628820381,-16.398967289494532,-19.971512718141312,-19.655275844758087,-15.701657834569232,-18.022950356584396,-17.875742783009194,-13.829380231291676,-16.13050902681488,-15.359228878573603,-16.544374579353644,-17.767950667635482
-10.281495031265381,-11.405162137992534,-10.950065820722802,-12.44416575702618,-15.094352781064345,-11.801482722856047,-12.51318451607204,-14.33681268952953,-13.367950169793094,-12.76374560372578,-13.851978876754144,-14.860978965223566,-13.224835428517377,-11.94640638958495
-7.766021679778783,-10.51736111250318,-10.248334704642568,-8.570701713502926,-11.132976891181393,-13.623973316767884,-11.622675252387477,-9.579223516155011,-10.070929003047898,-11.015134352411307,-10.985729823000314,-13.011338670267287,-10.763263851635887,-8.882626352696319
-7.799997055009915,-8.952450361325097,-4.4096083651185864,-8.354952136816589,-8.71698531275361,-9.11035223776764,-7.9784997165409655,-7.2675613617268455,-7.568963748268468,-7.656469849405242,-7.669049688777145,-9.77822876480559,-8.61241283038042,-9.921993693745396
-7.383568337573856,-4.497090057002301,-4.448709482825205,-6.1422777789687935,-5.963406728697175,-4.0099582904808795,-4.489335482713036,-3.4046554142047376,-6.602635555897969,-2.5689564599425214,-9.779635424649346,-6.676078619698478,-7.264987691926189,-3.0848968025914463
-4.864197207828351,-0.9300561158809337,-1.9233715979525015,-1.5556101342189965,-2.5453686453439803,-2.0396252662373238,-2.599777524913711,-1.9829359165103857,-3.7976495877800476,-3.9069852170603445,-4.0958900287307936,-1.297116371371052,-4.162452068495622,-2.9478880554181055
-1.3263095910635407,-0.4802883836839599,-1.5965672126535235,0.2567293603317983,-3.3692385087255525,-2.1669065019913187,2.2322193315591434,-1.3255803389459784,0.37807272075884635,-0.10355397171715075,-3.4345626346262894,0.28610656283548297,-0.20304203327766784,-4.902940073460525
1.123614059060109,0.51070401065731,0.8795789768381452,2.770203633358866,1.2679896123080978,2.6300080199727285,1.2321749702884681,1.5289696753843147,0.837127313917506,2.40854960577109,-0.4944449045454469,-1.8654920300255131,1.167864986512048,1.703230233467644
5.376493869348552,4.382120667557282,1.5605773492587052,3.6693235379503846,-0.19266183152478478,5.979167141539881,5.65939470812248,3.228000767547866,4.438506825068874,4.7707531997547195,1.9555343355127424,2.40135481544281,3.1257498328100954,1.5497082195827203
6.962397381416261,4.694156825666508,3.9536834336558204,3.351880182800076,6.980770408426474,3.2238292425304804,3.9709313856873436,5.253778646385456,3.6665095718157694,4.551683048664051,6.044895231171885,4.7559193256764445,4.537099557411566,3.4180003366740337
6.885203637616404,6.424441715480846,7.165518191913727,7.616846177400324,9.056787466250258,6.927469654083648,8.200368268933127,5.299968733821517,4.818846326891428,4.22580317450843,8.420058249189509,5.807418575313855,5.6266689178023634,6.277136310433743
11.235820163166196,9.509535211905863,7.947300274706101,10.828514438955693,7.301137529121062,7.743705786673762,9.25422799511896,8.038228356480623,7.9725047260786,9.008857397771141,8.646057896265567,8.728043601063561,8.855043430917014,7.217926303538432
8.600628974084728,10.28036477621179,14.5600571382123,13.007617195105832,12.791575220796869,11.897928332766847,11.894797099424727,14.580263304391451,12.762894245420295,10.772621871438803,11.602635818237443,13.462584142911044,13.639901009063218,10.987489928870108
14.892022783748434,13.893235579096652,13.062860821996068,12.482146565223225,12.414657457699168,14.186046277393066,12.770423568482496,15.914901115509037,13.277604971714535,11.981865580199978,16.44811863162373,15.317754138286357,12.879575175796166,14.496024249657406
20.833908483816803,15.950727826068817,15.636580426936902,15.684526134200413,13.11670535456171,15.957315664694255,17.58054382563265,18.25737740506069,18.066051496450513,17.629887791031287,18.446152425887725,17.40578683824698,18.075327946283554,17.423894985495284
20.931359725748333,18.21572998294449,18.25263214363607,19.503764671243438,18.06665249091028,17.004019830745058,22.898230968421082,19.61124390059354,20.877707395913276,20.222788910495055,19.744654762202526,16.61448722808607,20.332057198323092,20.17715913493505
22.117426327437702,23.71916671676754,18.097257649846824,20.714781450039165,20.3940044099247,23.002495129146883,22.28948664400091,20.410860685857227,21.75838855559615,22.330559122143033,17.088679753401372,20.318083295022255,20.153600500436198,17.603039601960155
23.68449578899507,22.901839041385987,20.47284225104061,20.81912347481319,23.34898479702732,22.135235691942366,22.86457137677389,21.705854580950078,21.51995716885633,22.25651674622178,20.51094599204337,22.11684893925108,20.975408709470987,20.35459568447599
24.238928138706655,21.79067698490964,23.119435549951472,20.701305422137136,21.353120497840923,22.835405461329035,21.302716204192564,20.77813609155572,23.764088211113393,18.086968257298427,23.61942606559689,20.787286749174235,20.019332089507895,19.07501199659059
20.714773078944088,21.773862483439768,21.534307479920002,20.78273097099914,20.505771593595277,21.342639048123775,22.145896184137854,19.673241554638224,18.658941014105714,20.383223166376016,16.57519342612565,20.78383916093837,18.41623520690694,19.061484081301767
16.311078958497266,18.34385786401756,19.915362954245108,16.936920952768794,22.407620833369087,22.19409818572348,17.480192662341064,19.503350748607936,17.799179022249096,18.805276383778754,19.698710311373894,20.025420958904856,19.60261189195341,21.04997218985669
18.398632827452598,16.373664747962827,18.521549815574005,17.872981132913495,17.97739791828559,18.47172560717694,18.763606546932014,17.452973102407046,17.02203123117127,20.17292335976425,17.36116298986988,19.395426901716025,17.921593367969397,19.125887866914066
16.05283729588762,16.490150102784597,18.965932672705176,15.243705584388152,12.371392058680183,15.02890896998142,16.578613752632982,14.891291535635029,17.211492924037753,16.158428956147816,14.605481332823183,14.860685710629667,14.686087985169621,15.73673611978962
14.535177952811727,11.900747060824724,13.315450428562368,13.91258595648263,16.83025072507342,14.899407210004183,16.103266108513196,15.223045712952635,16.151324194001877,14.104725113767858,14.908087162916862,16.62441487469421,13.650200679068705,13.855628088096694
12.682203734770363,11.525205796041476,14.184236671547794,13.630386082853818,17.598130173521714,12.17140234727103,11.44281677724543,11.973046679556322,11.845807317281475,11.265709033946788,12.138391911398301,11.673338826218082,14.155468422095364,15.073172722973997
12.385602304668502,11.499235846167254,13.48168879600163,12.459151195119478,11.811796426882738,11.14208135787039,12.575647706667858,11.939877149677935,12.465948962492533,10.900272966508922,14.040468606248396,10.33755526893644,12.805068836791124,10.367132179413588
8.941649703532185,9.022516028356533,9.196294396099656,8.914159546087312,9.143108072953916,9.060100027044557,9.37904165573604,9.716339292598375,10.575605997775044,9.582845619160297,7.580158463074127,11.628338226273254,7.100789299040915,9.753758639656043
8.767905194323873,7.493348689602062,8.219109963327604,7.879128707931581,8.159826499841214,6.0246237308496875,8.241566749086166,8.711426657548204,5.635379951121874,10.147505191245228,7.85350410334004,7.423341126339199,7.354706596100886,7.0535236999290785
6.916633702715989,9.077473479288859,6.165933783977167,5.839782290603449,4.769574245371652,3.5875326560521614,9.483594972879839,4.923438339464482,5.758755069218734,6.000712624954799,7.07510433441916,4.6204247969830865,5.5179267443115565,4.0691755579417315
3.3198808014979746,3.783557408791948,1.8323303185800874,4.864405596261666,5.687492388167368,5.6475636190015726,4.082827401415172,5.629936892765819,2.639530765235797,2.769562641067911,3.0506813375368953,5.540403289647696,6.227279554228185,5.405309919801722
3.8522445124278892,0.6326725501102679,1.6269913550025428,3.0150474239837366,-0.6925759323269225,3.36113804625498,3.362806066066733,-0.016748670522462206,0.9157239869717896,0.8249834291889746,2.933495345608839,-0.5701171304123132,-0.3608343345259448,4.759128298599802
0.2005514700774289,-0.20704014314618835,-1.3082236898644002,-1.0109953302375037,0.8422443144978295,-3.630493101582407,-2.8388062981135356,1.735125361388274,-1.643945175869954,0.9300418415967431,-2.1217602436903347,0.1624507013595189,-2.3110626578231845,-2.484161397063138
-6.980939772420043,-3.891000851423845,-5.725880772184117,-5.326876355542978,-2.8685141523240643,-4.005132653614647,-4.127464656277299,-4.905746596394973,-7.331632971004111,-9.206783338429002,-4.733176854262112,-4.018979797962372,-3.542073857084519,-3.5147427639137794
-6.415318813608309,-8.328149861695016,-6.694814593038858,-7.8867008659480655,-6.328521337796549,-6.724826415860139,-7.755746981611324,-10.65017689626045,-10.967582018336733,-7.573285850286831,-9.158469405393951,-3.71021931250964,-5.310817290345392,-9.233168117327585
-11.236884601220236,-11.373470396770148,-12.643083336624297,-13.392601150261703,-11.312831542382686,-9.883850483654461,-13.0283767369943,-10.097447564616171,-12.359203913017154,-12.158372247138573,-10.85836058861926,-11.391029604760481,-9.640122539322082,-10.745406439658124
-14.472013364355774,-11.413448221108638,-13.822983083271167,-15.58589039479424,-14.473172325332824,-14.88687150181679,-17.277665565736633,-10.853726143932574,-16.784515026471148,-13.450491223027031,-13.88123219033486,-11.636020117081458,-11.871937034422501,-11.997914049169534
-16.043125512765116,-17.317905702644662,-15.374470257639784,-13.72997768905882,-16.29580991152969,-15.234524367018507,-16.148418440144532,-17.007891558847266,-17.878850899158824,-14.353525483052449,-17.07239843876233,-16.692461587317208,-15.350711422657575,-17.811641156836135
-19.780396816218744,-17.643583419554925,-20.45513982705612,-18.676200851283774,-14.805914364660767,-17.242318516261637,-18.774300740189208,-17.718177490310033,-14.892064751628475,-18.474888199449644,-18.744767542306462,-18.641106466883745,-17.080234141960883,-16.45175097263253
-16.4763295595006,-20.203741124182486,-19.24280352540451,-20.52716249605206,-18.641643680150647,-22.227870729691297,-19.865821480698887,-19.329032379477155,-17.827321876145437,-20.395131520108983,-17.411588786073793,-21.2097203817653,-19.026141944383397,-20.35552566856804
-20.99146513082601,-16.770604668185424,-17.240377964538144,-18.156091087096712,-19.4052545210812,-17.860217819873043,-19.604553626665865,-19.357076784686946,-19.050571177678,-17.774697606301302,-19.953784447037968,-18.677511215974114,-20.950223465441127,-18.484587053746264
-19.40213698649976,-18.916587367113326,-20.929186442075032,-16.68273302170275,-18.251873843552513,-18.69928229104592,-18.847383309168674,-18.202144516022138,-17.452455653943524,-19.979008575927114,-16.56137818709698,-17.057620118808202,-19.568183120474707,-20.176404088025485
-18.74853077875091,-17.764489209712103,-20.30993437869116,-15.973374689769095,-19.11062711177875,-21.404732901098903,-18.891776820693458,-20.33350082037614,-20.09619893086446,-18.70114364592828,-18.60122173700083,-18.392651062679057,-19.14390106927695,-20.319687686656412
-17.725502106533202,-16.980408984084463,-18.072907011364844,-17.373811812515893,-18.368360540171,-19.261669843552855,-17.380550977678354,-18.05071614563643,-18.571310911721625,-17.351930006952635,-15.862720643546947,-18.31004756813374,-18.529928111288854,-18.360786067389924
-18.290556504509468,-17.486041476127955,-19.259358842735413,-19.61291709477623,-18.372359107628213,-19.69277409075378,-19.001153119692365,-20.530798397766716,-18.430632775800618,-17.638546802578723,-17.929305589066576,-18.040007793344593,-15.885710513847892,-17.701891820151623
-15.995714814609197,-17.07957148667826,-16.943204035676604,-16.950966700185774,-17.015835879618894,-17.276086948565574,-16.364802546018325,-18.247266617089533,-16.59203836197157,-12.88737778122579,-18.202421914988758,-18.83504547487673,-20.403463231304965,-15.358967405485345
-18.11755543713513,-17.57419806709489,-17.154211806495915,-16.817786729933527,-20.108557806677197,-17.384981841616256,-18.588001090989437,-18.442158710333704,-17.17712840405314,-18.49254252418707,-17.813892464933023,-17.220967940746707,-15.65907667813917,-14.963443215952687
-16.061246916304363,-16.61622691689666,-14.204514543595835,-17.322251852759987,-16.337869420377512,-16.949357462681984,-15.86717831593995,-16.800765451796273,-16.651807875255138,-17.844466028909736,-16.090652101279364,-16.70679667280473,-16.542917181109527,-17.307196686704806
-14.776465231004408,-17.875264288265246,-14.43320183732898,-18.025332957791445,-13.768795264403787,-17.6826686639374,-18.021451991054153,-17.849056969449787,-16.498232340499264,-17.048509599118855,-16.022176521820274,-18.07515158117834,-17.66685023153886,-16.11390267984627
-14.476700252855393,-16.37484385918753,-17.03851448426085,-16.625434385983244,-15.708757752015073,-18.491612361252898,-13.400964919405446,-14.00572934981641,-16.00209824235827,-14.734656987928425,-15.140501540969513,-13.452626930292679,-16.594120443348388,-13.039399797463197
-14.221034080825874,-12.478752496620558,-11.41020345618466,-15.238914428812656,-15.319448864177932,-14.917260394070778,-14.703187926821977,-11.82137780361963,-14.026498713474549,-14.262313309208418,-10.05705130058309,-12.833936924653758,-12.110037152965537,-11.747456129128041
-9.751648907011502,-9.188302536603384,-7.437530601155899,-7.67991156854691,-9.613064644740852,-8.644162535029878,-8.994476184893639,-9.646200121262124,-10.140931173679782,-9.475852981772432,-8.860385648125826,-10.465699408118665,-8.911594219576465,-9.541225177626934
-6.656233523690768,-4.481182462485843,-7.016407089623806,-6.871748949946132,-6.813242699642751,-7.4730981952099995,-8.075093986220223,-7.032303768002358,-8.31957587780294,-8.006838585100924,-6.210608059164926,-5.714208919643753,-7.758127538428935,-7.401113983436463
-3.479069564515967,-4.4498342738908665,-4.507125930962308,-3.4933078195091314,-3.7119422544566447,-6.665750878062192,-3.563851166006331,-2.8477533011079172,-6.789394819172429,-3.6818391861030992,-2.6707523433671945,-2.4255312874104344,-2.206568858261062,-3.5983378029521633
1.837041542610728,-0.20057509523761707,1.096244108532289,-0.1289084251687196,-2.1579252307561196,-0.15879526497500396,-0.2555759284443684,-1.3796532445230258,-0.545488792260883,-0.5687567630390475,-0.7460807341128526,0.9820617611311498,-0.1955837250031116,0.7719157267822956
3.9573047426976773,3.407174192142079,3.553136519917174,2.251441668464782,3.42096837011143,1.3166003844597634,2.084442470765658,2.611114440379549,0.7448327731744357,3.0709416330612807,5.114278597967738,1.2057601046589337,3.1446303583651405,3.1030787542576643
6.056200103252545,5.2546602613631155,6.790498418035309,6.488537622936008,6.9906147804988645,6.24050393024655,7.850974969024588,8.775670777576128,7.666447887767925,4.57652307549987,6.088946230076424,9.41561333844139,8.768293512224979,7.1907462688573025
9.423357386042857,9.351826419604155,7.510852402576639,11.112559953168589,10.56238494603856,9.56500318958333,7.4679094573520555,7.578081593240191,7.481110573967982,8.290720998006115,8.905602982286442,10.731248382601725,8.178840980975483,8.992304110622259
10.886704635126454,12.067563965544986,9.060064324832434,11.533821774620355,11.640712268785514,12.451767941899403,12.646925566799268,12.171578220891899,11.276770767301487,13.766781018500275,10.480770556235377,11.103308733077172,11.022752375712562,10.913302778097963
12.674169020959528,12.42535629478241,8.373077635506904,14.253810340690316,11.257781926907503,15.802202289121752,10.28038083825659,8.489443157692872,15.210528538414167,15.68347515578214,12.248604117069991,12.889477661169536,10.327462137852343,12.611773067379985
14.461259275588198,13.479082535731774,12.1399622786182,13.49957868983237,15.325786580849831,13.918971536622632,12.821776159709657,12.551295343696781,12.238693983830345,15.812418904876965,13.461928999772761,12.322644546712423,14.476399964751995,12.246013691264888
14.748837523299587,16.200793568511735,12.51419414863831,13.407605063334984,15.014824958488958,15.481279214784376,17.260811315573378,12.357085438629955,13.218370464566817,12.272671753795326,11.972123637284485,12.058605948831207,16.023757670082063,13.954759550965257
12.734384680519778,15.100423439289672,14.35767444692453,12.412692914297455,18.11229707414314,15.315299604665714,15.710213860877815,16.271725008049735,14.27029128887193,13.906223689856292,15.516158894735387,18.287873915279253,13.340631825614933,14.232930584038947
18.167796219334733,15.325536184311977,17.222263008066697,15.96845849367581,17.31657880912645,16.852017671580942,18.392183006132566,13.808202475670878,17.9641317672087,17.314173884775496,15.912356366645135,15.728708135220666,19.554230214278586,16.54747052369747
16.99941543664685,17.32794047349217,15.597799886953164,18.807572956474587,18.279632405718147,19.14098849561641,17.97463124237832,19.488656958149885,17.444416394207813,16.878140937094724,19.514476522299702,15.444267925246379,19.06239827193154,20.7075829366228
18.394253973595184,17.342278304146745,18.445906829869713,18.969167721528155,20.152635424788645,18.743227455530956,19.062606188594074,19.05958349356423,20.072240219210602,21.11235855376602,21.25075350271944,18.405965700753445,15.957111436171274,19.602669086591405
22.07623932048586,20.133798298075117,20.17334265673383,21.040280649349356,21.82957863187809,23.770388587371933,18.524200172375693,19.60936584190091,18.141860641278885,19.13340884049867,21.220686019450188,18.943339584376403,19.399457084312015,18.126386184818433
18.679359632748465,21.829308052490706,20.56235380325256,21.061280065356215,22.942171693458626,20.412103200875887,19.602614451678125,20.378358523131627,21.423218277857565,20.37678795095784,20.837343049660813,19.78714754145875,20.830895395263003,22.406462771613874
18.605323206857815,19.762425848479804,21.853524085690143,19.814271927725,21.671759397181464,19.513534822743193,19.43822424886548,21.146214179592327,22.78302504735273,19.613696161354788,20.517174591517175,21.02315704955861,20.222800209081253,20.51805603664905
17.753329263100596,22.412230170581736,19.71418284070453,19.66314656756722,19.208902197570687,19.425943999885668,19.14967162392151,18.508985978308974,20.48185369667745,19.419470260782415,20.22121231636874,19.276204533713365,18.915051933447355,20.34455201476149
20.964002873464647,20.244304068928116,17.978325260266008,17.6462696617598,17.95280536622441,16.26339727759733,19.346694540677774,20.40560327021658,16.88939003667908,18.951473849990723,19.34246421176842,19.275605374163856,21.034459919232486,21.217182117284555
16.43288530532409,16.21948617139737,15.292206436336365,16.551439973817594,19.66565540501568,16.132586341429093,16.748305068223594,17.00882247586879,14.537722368224467,14.970146565829378,17.565549887041357,20.881338782554778,16.364778797485467,16.57191908535408
12.485179800723559,13.20024696600956,12.55363369272536,13.9879117849612,15.208151139516792,11.228629592336008,17.05209285039402,14.555821541981153,14.489570492801816,13.12110753660108,14.981425327435533,14.825661147130136,13.966725875639899,14.892638760576736
9.088857918419144,10.58195357768698,8.26786248825607,9.036929831957929,8.929532902311022,10.122101474444012,10.951504188539792,10.205841840696873,7.5140494843066215,10.815225591303276,11.391190153018062,9.830808554580972,10.083942853828635,9.989274516147503
9.474778898844566,6.787267680326518,7.578943782071858,7.63200479634043,5.1168483642023315,7.055959904998478,6.913845230676281,6.361751751689648,8.915196011558862,8.909186741290275,6.779449127498119,5.74949659532035,7.78178897765669,5.827927039183904
3.5770252739072808,4.3383823920633455,4.959346771088146,6.888089742700934,5.607141001503612,4.890363801257735,1.777700056449258,4.026122930901077,6.667523767942774,2.7881381324801637,4.573316115681684,2.389006793097217,6.985031609812725,3.255705656893563
2.3904565800643622,2.845569823896782,2.3108939667786643,2.624868000164229,-1.1972594729867727,0.21155947142787213,3.8057517710388966,0.00024100293088524793,3.683579646436936,6.900798978558623,0.5658584219467468,1.7944950981893177,2.909025112821018,2.050275535541925
-3.3002516662609676,-2.219545056292141,1.2215041764988444,-0.0679649530708684,-1.3941537515359324,0.12751616466739168,-1.1480627347261654,1.9613074910661419,1.411043372200982,-0.9464144583738847,-0.5803812909551683,0.7006451422267509,0.22756244791071567,1.2239302517982025
-2.88690387529169,-0.445855631280891,-4.058697899735781,-1.9141866491751953,0.37918170668886075,-1.775103766408671,-3.8332656748362304,-0.9026582206476781,-2.992038390470101,-4.563489360930403,-3.133829298308789,-1.8427067205218128,1.2267247303820463,-1.728515257855066
-3.7804744294430432,-2.5777685894480724,-6.901250408117999,-3.2464242581475493,-1.6886066453704638,-6.209668116514591,-3.7147878636459866,-5.045782229774328,-6.00622354039764,-3.604979195451961,-4.640495801967079,-3.0804618667881387,-2.0820109005974032,-2.9181309081241786
-4.660840137180479,-5.23962562252845,-5.228909339267859,-4.902030353322255,-5.996709747426766,-5.669513190995631,-5.579682605096471,-5.1512198442773744,-5.5173369303695,-4.769741252012556,-4.813848322540693,-6.145441130246752,-8.531779350855173,-6.7339734978318635
-8.243329005376763,-7.431823206627982,-7.916645510508702,-10.061605771667988,-6.556294088340336,-5.602293963705227,-5.404351538129328,-8.222123572806506,-7.5244787047045225,-8.908496572035137,-6.5849911483255505,-6.007213140173693,-9.686893359655647,-7.8498753699793555
-9.256173947452668,-8.221094371734878,-9.84599348465646,-9.216811488552029,-10.881224083604959,-11.901483208423318,-8.244518116233856,-7.880991331074967,-10.248079793363182,-10.207354610369322,-9.339947482549796,-9.328143213650469,-8.90758704857368,-10.424608191871124
-13.216794536313422,-12.585416497247527,-12.615745320184836,-12.508996876935198,-13.853708209471524,-15.938051277063323,-11.305894714737056,-11.557094381600676,-11.209039359007459,-9.049302172159212,-11.389297224478124,-12.530388086226578,-9.667821422612128,-12.016767558986299
-16.42580846584397,-13.429890671321544,-15.350883886696044,-12.777952175801751,-13.804298665196967,-13.598079937547924,-16.372041684795114,-16.7870493397522,-15.162699831625206,-13.610699725817232,-13.949211715739677,-14.245052634812414,-13.566515790156702,-15.823123980288537
-17.476117323691486,-19.331103722625123,-18.692074979459086,-17.019979784634327,-15.996933575145958,-16.84830774374385,-14.407398531874971,-17.565339110457188,-16.431283638638355,-18.05143516052721,-19.961067726103295,-19.18869049879502,-17.141506653227918,-18.159615238326005
-22.750921517668996,-13.925374698945149,-19.25479137488758,-18.767769790755082,-19.438689395275684,-18.85042225965785,-18.248582303169886,-20.768120182542404,-19.41464830090133,-18.62568276363569,-22.28440613004313,-21.484487369414648,-21.72217075778666,-20.603252064270286
-19.524858126889786,-17.756802824982397,-18.333273701920746,-21.628760025430797,-22.386532731601022,-20.84361654781739,-21.517523099161608,-20.937340678776586,-20.373503018862227,-20.561329051425318,-17.99605750483886,-22.84331845688769,-19.308500318075104,-21.209388977729528
-23.449997899423476,-20.828724731084588,-21.084575758356117,-20.939760146150405,-20.403765519171124,-21.040855247688633,-20.366473769118986,-21.473913948333127,-23.00358231444084,-19.466671864550857,-21.174958680445783,-22.7261814855564,-21.679041744593114,-21.392305420865803
-23.454280417129095,-22.04624795615866,-26.422746234387276,-22.235898979723146,-23.724255164751376,-24.631830031979653,-23.363952311642972,-22.272330854296644,-22.930147437744992,-20.505911880899433,-18.072548822107905,-19.725463235789274,-21.26858019379698,-23.896038702457606
-23.18062013782053,-18.37632547715151,-22.52638716906498,-23.991520995496185,-23.546760340132575,-20.436402350718552,-22.399252966720304,-21.08670889181432,-18.73487168026562,-20.062026994466006,-22.459180358184067,-19.98986622784201,-22.466725207200167,-21.440544262561716
-22.484059868676873,-20.721095025746887,-20.1214765802694,-21.018047250521757,-18.277639030670244,-21.661431879788964,-19.399291118315716,-19.628198854735672,-18.10119949924283,-21.487776087995318,-19.075553811175755,-18.72418107290454,-17.39963878122486,-20.582584942065303
-18.014755896830298,-16.015619489171854,-18.169483636024896,-17.782653888977233,-16.624266564809727,-19.710794583544804,-18.74615316498076,-16.338643275379727,-15.330491164385876,-18.7924824565901,-17.99605791241104,-21.157247686601426,-19.04821422998572,-16.640828469332924
-14.458880988724236,-17.35266230764756,-18.45822372651756,-18.073855447474884,-15.980994698461021,-15.308292135569726,-14.748502384693156,-16.518872962186453,-20.01642356206032,-15.339701616832631,-14.885330283576112,-16.1789405253373,-15.211229475120184,-14.750319362053961
-14.564313368329184,-16.347747911660374,-11.79210324868562,-15.395290135956518,-14.236897140749907,-14.178027085380894,-13.186386300375533,-14.124872826295675,-15.588669727689147,-12.033954846314252,-12.943683351083358,-15.174588308812886,-13.003830079620789,-10.214566391383627
-13.116145524999373,-11.261537006844422,-9.018477619968827,-11.86252249255163,-11.382609780613958,-12.737175780212727,-11.830322682526507,-14.165978756046952,-12.05841226247538,-11.019810873855539,-10.351684420670207,-12.844589783296858,-11.138784527080745,-12.235982815875182
-11.309680719013485,-11.923494438508953,-9.569546098626521,-11.262267222928061,-9.354862165779213,-8.107997270506086,-11.35134390223202,-9.879546773247235,-11.129233567064926,-12.858979864829742,-12.026647194848788,-9.643195048568318,-10.31650672037894,-8.550013802368976
-10.28874496573229,-9.143152840556512,-9.043816089516438,-8.544707873377464,-9.189973361197728,-7.508689800153167,-8.117890337288257,-8.059980915153352,-7.001737106385219,-7.61630237454937,-9.377914801276141,-10.99268506693537,-9.606008266174685,-8.292870318631277
-6.204379660628111,-7.327704934243333,-7.526405292947767,-8.138815006044505,-10.40671063911262,-6.755042088316035,-10.262478255697214,-7.732666276549986,-11.170942847845465,-9.194349412433,-5.468922277770651,-11.244259428942797,-8.689760869362923,-7.662895200753388
-6.6602324666909,-7.4759595701547275,-4.37888617277524,-6.50567370767318,-5.773422327128332,-4.849291551861506,-8.177988066154937,-7.207856090737293,-7.625600590638028,-4.325068091957612,-8.333118237297654,-5.413002361949842,-5.2350039396499035,-7.655759581505853
-3.0016909231854783,-3.7316222363434837,-6.1571151582970405,-2.6387945429279123,-3.920639568790612,-3.785940907727025,-1.9548544927764993,-6.58071453980536,-2.6061879939657775,-2.5004737614765338,-3.5454200538092984,-0.8508817416158787,-2.3317359409690748,-5.3071120302903765
-3.8501474612933415,-0.1539944610075561,-1.7679281452753446,-2.0912122555136587,-1.10481054746192,-2.5351279019675976,-3.54820300894883,-2.2124209962023373,-2.9408420770270904,-2.065469412819984,-0.10520548437033961,-2.8216440315881277,-0.8271158622524095,-3.8449940823478714
2.2739831941471325,-0.8769252447864762,4.561244584414127,1.6344095962873735,0.3145632763777704,-1.9528857785671907,2.3163403152094793,2.61728555848651,3.1800653408964665,1.327302198929404,2.7466475161786548,2.975673008847634,-0.41058302126706514,0.7384103716954954
7.305656300865066,4.862251891402019,2.8526823197267603,5.51008943122867,5.788084894607748,6.849797191573289,5.164921271038903,6.68139152913904,0.7227012283483392,7.338245053431189,5.796621446298494,4.869836013766962,6.435778048383149,2.9191700377336285
7.080718863177593,10.314253728235489,11.234729271477235,10.401272150965463,8.943292292136816,7.747142666598684,6.858300233917486,10.567822294386195,7.905855132840634,7.648908608864175,9.934193017895147,7.603312571654988,7.010541595162105,10.393843476175007
14.483943830199138,12.800479199471859,10.529268497787914,12.329255492681481,12.630640596498859,11.245275439523358,12.760259919064868,13.117582669319338,12.307198934962436,9.18421479240457,12.038140790987237,8.889413305251558,11.49504494492887,12.116576228341009
13.483256924047911,13.309067321187765,12.092959805808173,14.411947872256617,14.471092896651053,13.652211495563353,14.043465036341527,14.07345442288172,15.019505878152874,14.603429087576057,15.83184732975738,12.743618006595248,13.712232746369297,15.284264536443217
17.42506768718749,15.245480872041309,17.333242297545716,16.06288935663701,14.432399335223884,16.6818901154128,18.227104612075326,15.895834833555108,18.7559521937702,14.923142568394246,17.386356890429855,14.844735370062367,18.498148336650623,16.204088785515097
17.68322759011385,18.756554309561995,20.461930633497133,17.953424844125614,18.441992892672197,18.75194767752559,19.694908554749347,18.98151689628159,21.96836373345476,20.445846486162953,18.058540385764918,18.092522622886214,19.50969039384739,15.929582637268524
22.697495120187057,16.28398704573469,20.307925368546506,19.336133567600534,21.088528951929295,19.872050902123824,20.05501066932273,21.208489482621935,20.80353936589884,18.77604708793113,18.420758593619272,18.43874031175531,19.0068040623077,18.579464870828364
18.649037791184618,20.358527957714298,20.34541352242824,20.510472763376665,22.32052746298646,19.444714554415974,20.793150146169044,17.223508260292483,20.7091132982506,18.12051125494795,15.861970338469181,18.844244846192527,18.807997989386394,19.413254179916887
18.01241854168046,19.021829141811196,17.74803602514309,21.029844446864136,18.65527986375127,20.79863585709126,18.29306323933399,16.83857469811744,15.736709358921907,16.5920924760129,17.54214091859581,20.435540966439973,21.88738485042442,19.11448367096932
20.18483108991392,19.788319248182688,19.188616013426397,18.048535687328013,16.907805994771024,18.264404324747417,19.62507163500033,17.75792775245283,18.62389058314224,20.393528784694794,20.93980160036034,18.767531669170033,18.23621828923364,20.046329838409214
18.2597974532208,19.629155159395914,16.859339718943502,20.578060431902887,21.43180566928345,19.336161926929044,17.503532300359797,19.141135333195287,17.83637230791132,16.911489615930975,17.633470280676967,19.788999909066092,16.436774961157177,16.605027335035384
17.14536075394468,16.99409788802617,17.293144697057304,17.883573259638354,19.61249320164722,15.427949530690345,17.98732542419309,18.643361130623877,18.542860998974106,15.21834564383217,17.13834636449001,16.47646582433765,16.676497010583635,18.03341212304702
17.37711043827055,18.844191406858336,14.507694596763304,15.456640225140267,16.637726825909958,15.352752534817991,16.22013180660699,19.118468507651666,16.273757018576692,15.307174890437835,18.241652701833512,18.884228908869517,18.811773276168495,14.653179973821825
16.474156287467732,17.10277033996393,15.94139616564714,17.018512168691498,17.586321201428156,18.006154589894095,16.97930455297316,15.705453987952348,18.328891310725382,16.817048310708316,17.34287838111123,18.102641677686567,14.702400613760268,13.258561390717833
15.013639563278224,18.183867436090303,16.559167399764416,15.270624480666264,15.65851191073062,18.587168322222528,15.470762529127304,16.26942603611312,17.048899211256163,16.951393705404833,16.95537067467806,16.461745549968725,12.143409790916488,17.590790682210066
16.37668673962185,18.011082887404136,13.519442069723961,17.106237345152135,19.76699418376499,14.615649463244281,17.22125229703273,16.837025263466845,14.49255947683738,15.679830273554142,18.11985763486975,16.810585454121107,16.815273067334473,15.030247433185048
11.73108895176427,15.42975500375347,13.080109913192674,15.354478036995097,17.401299825960947,18.097374531922142,15.404652162599142,13.803930845020696,14.737255123355373,13.93839332419099,15.729814057927026,15.350083064837223,12.113582406188023,13.916121262263768
13.027782026505516,10.458242436183648,12.107977652676412,10.867322240530928,13.13172440097068,14.241708680992126,12.23175643419565,11.462139497310961,10.762255532978678,13.074625269827258,12.775220216614562,12.60173806962865,13.378153324938967,15.006926118963555
7.349526491053206,8.698895647273345,8.78616291754128,10.899348062777465,12.195967786476615,11.432810149204592,8.629389339090991,10.599325247950986,10.80653214117659,8.9685395673941,10.386889756810126,9.170518080622932,10.850834447572634,11.167099023683503
8.757567409726374,7.725187345886982,5.946156759308966,5.395026075345882,8.79836068371632,8.138082626082818,5.466931909439316,8.607096256084679,6.283203572934875,6.006430263881642,6.31444921134314,9.193838925366412,3.8254132903668676,8.483937538531208
0.6529792484792805,1.281937258248409,2.575339657784623,2.622486480891905,4.3750678279114465,4.566756761303806,3.153390882137765,3.3927974215403296,2.3410238927664544,2.9983667178656006,1.8726159801878868,1.870323176001615,4.495549508260632,4.167001504876955
-3.3592343886774363,-0.3679434113505873,1.2080036970111863,0.449182046993278,-0.8320551456894514,-2.3725588635459705,0.7061561008224141,-1.5663949573898734,-0.9605971236772195,2.28084691192871,-1.3438600286818487,-2.504513777203159,-1.232480081978908,-0.7571212046061473
-4.873719987203662,-4.200398802009724,-2.42094489188071,-0.3425730063029384,-3.1193078453756407,-3.121568270599945,-5.555997906931378,-2.4600925335588326,-4.014854713715321,-1.8955279252707609,-4.458873465992098,-4.287022848470721,-0.3404858015000345,-5.831657085985154
-5.417004496280137,-6.99881638393564,-6.099765296561587,-6.456271859779687,-6.448757260483656,-8.2023813801277,-9.10551633255379,-9.204777581422318,-5.0523796293822745,-6.142808665744982,-6.505041864210555,-8.461876679627812,-7.089185749781413,-7.593646235317977
-8.005138835969944,-10.09917758100647,-9.3935858986172,-10.020307033181188,-10.92120409177494,-9.81709729454456,-11.225716024018244,-7.895189176564482,-10.791298160096977,-9.321946492940787,-10.468050626691749,-9.223127530376093,-10.854228948305309,-9.747442971782299
-13.07031338741843,-15.14980826324488,-11.96549207984688,-11.931025348904676,-10.761148769293607,-11.413915335247248,-14.431946122655946,-12.594473803578657,-11.095304690699049,-12.170793721487424,-11.985272526541822,-15.386636587887669,-14.259427508742181,-10.20583320927066
-11.571354753641446,-12.55325914727419,-11.045435678532222,-17.615280052078575,-11.817298373071965,-12.291029657669029,-12.855369085297909,-12.287543671683101,-14.143130162923976,-12.346047743424835,-11.556558862181245,-13.068957440617522,-11.035124695269865,-15.015549178823756
-14.693515358928034,-11.063024809260298,-16.978180763802627,-15.36954523238552,-14.279819682120475,-14.96511204382285,-10.587720517323334,-14.847633670941264,-15.46003774555383,-12.794161666653187,-13.559891807831715,-14.082494948779098,-16.471027306472802,-15.958563944654001
-13.379456342856823,-14.114979232786498,-14.976346064641282,-16.605629716569446,-16.466071357945907,-12.27114139863795,-13.89635689535579,-16.925631835928634,-14.666012382267473,-17.38373771640866,-14.321731987005574,-17.49466879139046,-15.054664449162335,-19.5130207040385
