AF3,F7,F3,FC5,T7,P7,O1,O2,P8,T8,FC6,F4,F8,AF4
0.3980644513188907,-0.0863767697146627,-0.5591064077739198,0.9486742371868739,-0.32096103473774446,-2.6631682089661752,0.9851994749186456,-1.8809808970422135,0.04076487532619522,-0.07752251169165558,0.0839622512071596,2.875733561787738,2.5568830188985214,1.5312503067001886
4.733717164807589,1.939976538056194,6.477173468941238,6.170834966978972,4.391221712122801,4.247413720180439,2.6940213767206727,2.119070490751091,6.495844179373911,7.633006303854142,3.84115390397004,7.03338093300265,5.618576314536609,3.8214880103002606
13.431835678813052,12.950219885709942,13.760838569518105,9.563395758055025,10.19486105005815,11.37238886672463,11.524173387867815,13.248046412580347,8.187828649801737,8.055102974302152,10.872508865878753,9.797696914708583,11.982807089680835,9.709682245540925
16.351118388191402,13.568415434476346,12.720715343755499,14.337286857464813,12.030739191063562,15.375056490152318,12.73009851267228,14.010709625181233,12.38191128945314,11.10648454555172,15.032606712905881,14.548994189363984,16.14441332908612,12.45072424189712
17.69708574872591,17.369268030105374,12.223755073864627,17.38314331169243,18.090493507494102,16.62016623723511,16.85627837721363,19.064180170242665,18.975464237854855,20.630459863143592,18.75686649133163,16.5383275737198,16.642200863386055,20.513711796218043
20.42777308859224,18.628469250977634,16.76733718359155,17.239405715067782,21.031927301956305,21.589031907960536,18.582992462402586,21.477761650335598,20.32828606350789,16.4984231475268,19.004969113656216,14.784228235301518,18.316444856772968,23.406239030700522
18.234926764850428,20.13443028496618,19.49612530685089,18.245041479386014,19.763450950661493,19.98643827233351,16.835590951511115,20.476079419892187,23.173817240865432,23.125304114110296,24.045670572646998,22.346567087755744,20.64495510140572,18.39709720321487
19.205480473154264,23.63195222223791,21.608383377631696,21.1779280677849,22.190747456426223,18.87055333920314,17.310695764061997,19.071182366201008,22.78726023824276,22.723987331183363,20.396599830175525,18.514933345574462,21.897128199824127,18.987770452812168
23.059270572134416,21.41487768715646,17.7617794449393,22.07293103203166,23.60607536901172,18.636409918109003,19.116698468874304,18.457461178492355,23.671000040875875,14.843031907754504,22.449652783432406,18.615185707814447,19.864412470673123,18.409371274384423
19.866525298471796,23.92154592081019,14.3232946202683,20.930162669875944,18.093267945182266,18.703933163470037,20.058518267862986,18.595141410829843,16.741980973523017,17.64246622308829,20.205805276501863,22.32064895942738,20.25880910329508,20.70075767663571
16.132828715960816,18.19554279159846,16.430046451329837,16.58884742857781,16.762694935174764,19.312465057532936,16.906112800395032,16.056265527443188,18.464966179254013,22.70156672370718,13.57702333743607,20.12276128655444,18.01328717298435,21.04273832967999
18.082749501960375,17.789520681123278,18.289961734191824,16.917732374754173,15.490689985087544,16.14199038181016,10.323645002475496,18.48377938429153,18.978845057982486,17.00769924269053,13.913165343278663,16.95113648048286,12.801552119218954,17.91259459615275
15.232848459161053,15.411437022566597,13.103884864166291,16.070568874816153,16.096436080758227,13.118125048790425,15.435659374152046,14.873939113663972,16.354327981175583,15.550052931137213,10.758639864982612,14.451747137567118,14.51269719976447,18.34331934450322
12.72462722378529,12.833018023589709,12.02865818841655,14.58295748366309,11.045546495025247,14.625483831462077,13.627718301556522,13.685044944732173,13.216437245632243,13.877063143506975,8.940416829858497,11.488217666302138,16.17507911915855,12.907232885869211
13.688394455427318,7.286555342597316,8.050028799890788,7.303572749397647,9.250202464716654,9.39762449199513,9.305442518456509,9.227995116007829,12.55414935540891,8.520199289895046,9.681285756154416,10.217707183703096,11.274798039012156,8.448558375667588
7.7967912859166,3.637260498082843,1.3270884002879777,5.344352291962559,7.591075107978551,6.84658003949812,6.699635824480604,7.121621486270829,9.104050500976562,5.87992249290277,2.8471084932152197,9.204530609626433,4.622731744431043,4.20776468212007
5.734997862246853,2.484445911893054,3.2508904437859427,4.694287078200071,4.135597539773384,1.813474041440836,-0.5141452156478548,1.8925344688991013,0.9401037316717984,1.3511818647445633,3.59404087125305,3.529453546183961,0.5515859816991475,1.190376429466766
-0.8318295913378707,0.9948140419107796,-0.7168062255606352,0.8275983999987666,1.4863502141412535,-1.4305020084206992,-2.4342169453870106,0.22072742992580374,-2.162369397600452,0.04850517728406922,0.014822533776902347,-4.611999017173421,-1.6818193879297563,2.159431884104362
-3.464982994368472,-6.306407129995359,-6.315285917360309,-7.2190991342828355,-4.048131812815219,-1.4601359227456303,-2.5845762416771247,-3.017403160862541,-5.1171641963364625,-7.718709504381138,-8.22331229637434,-5.555084332056998,-6.6802594176918095,-4.481801038641541
-8.486458485995318,-9.491790174002873,-5.594401750722076,-12.73447977197602,-11.690357706469493,-11.588073957696935,-11.768403833966154,-9.599623185619407,-11.870425164753863,-9.246700848368196,-10.313439247785121,-9.151736050126754,-12.438906124844886,-15.93280857695239
-12.898564459314809,-13.208647488797716,-13.935029813458783,-14.922251513951277,-15.714242892611125,-16.991357812907193,-13.817481416888398,-14.085671300057996,-16.445538859605904,-14.454640366218419,-13.743123722853634,-10.632420700858011,-12.279419316615945,-13.70468732347385
-18.063707590668198,-15.47816530823912,-18.410563044550255,-17.953964626844026,-17.377246525117073,-18.362603110054323,-16.437011242924186,-17.665783031741732,-16.087476420962645,-18.41644880660243,-17.918850138329947,-13.96787450304155,-17.926428795149846,-15.985436899604736
-20.25563055994597,-20.06062316606491,-17.138361124180495,-18.464177726309494,-16.56983108520397,-16.267787032384255,-18.19310241456611,-19.504415694693094,-15.156973692773201,-21.18323923436794,-19.1408006582334,-19.921326641970598,-17.236979819742942,-21.21882145496813
-21.103962842576973,-21.541104518161045,-19.39152512568354,-21.803958235215156,-17.723162788554177,-19.16559566587801,-19.947640027833717,-17.834395272612362,-19.868572326658263,-19.999431286179536,-22.25707542817937,-18.269510378856946,-24.648150448217272,-21.256234943133343
-22.01583287056318,-20.211047678740428,-17.108400811301493,-17.83739690672944,-21.287989733711335,-21.250921881927624,-18.92833755961475,-20.843547050097495,-16.571035402177586,-20.96849519248113,-20.576690864466922,-19.300591157917506,-20.95241894343099,-16.29918227620887
-17.19031854788381,-17.574330643369642,-17.40809046488767,-17.271081613565247,-18.23529406771471,-23.154073801942758,-21.664669991262674,-20.55614978236142,-19.888167216414082,-21.67685394258066,-18.292269069317424,-18.57222679518074,-16.840913575164844,-16.712078817965406
-15.617310844605894,-18.871143062623286,-12.26427033206198,-17.28014027137057,-14.248274224031697,-14.210901690448079,-14.474090670774963,-18.998757102451478,-18.528929826896753,-16.89579549829257,-13.892436403001694,-17.13873133306248,-18.16460671384268,-18.76403946927242
-12.59689360689303,-15.832835313393698,-12.886300707208234,-14.095225995222314,-14.020732716429908,-13.97971870519961,-12.540527425751081,-10.105062717980752,-14.132869520097938,-14.923711592372875,-12.698814469263823,-13.206119158310283,-11.98701489134651,-15.575391365157168
-6.828589290149745,-3.8402428658569727,-13.23931841070338,-11.421739843052707,-8.876573825055598,-9.016639707527702,-11.116813008755074,-11.104797602129363,-10.266213023406738,-11.202054026015853,-9.297646556442507,-6.256454410950558,-15.270670945203264,-11.579778529231376
-10.9073881386619,-5.749988115036988,-7.048689873203197,-8.8862252441578,-6.755293111815224,-6.82126539320015,-6.397761519523765,-2.7709386617944434,-11.294341348011349,-9.303301475359028,-7.205432117345235,-9.94030649351988,-12.544621947739367,-5.918164756097909
-8.671355135601514,-7.640857236708505,-5.753674098907117,-6.248303086665108,-6.574431654290227,-9.561629234565094,-9.165222672234856,-8.224602062987561,-4.327181164601148,-7.398046156857143,-6.947341193685322,-4.702466515643595,-6.312436687946918,-6.155446736558104
-5.439773038317669,-5.945840435381471,-5.9160739907010935,-3.460573645090864,-3.9074246797625722,-1.5981982681750329,-1.1162546782774072,-3.84102470329285,-5.460682394137254,-2.8270535655576174,-2.982774223017658,-5.997986231905957,-3.8519558303204398,-0.022572184037344734
-1.5054747211602424,-3.083716603349914,-5.769724816868245,-5.400675861157388,3.1408102259003945,0.21739146185409597,-2.8452207826259857,-2.998092161255589,-0.33836721133891223,-1.5748149168348184,-5.229428797525128,-3.0519527854060193,-3.220628616959882,0.9153865339586236
-0.14922402341697572,-1.4561299763387041,2.7648982288925277,-0.032173884804939545,0.7682474840233005,-0.7997268966477702,1.9579202298990392,-1.1758283631581514,3.035374423456476,1.0862205834897396,4.154479841642259,2.0573244378999793,-1.6860928266876496,-0.9465258632881899
4.057633702609785,3.2692317241926103,0.38650332479266813,2.141514763837891,5.332463473990496,1.1376090091316922,2.723535878458501,6.240414197796816,7.147959401326965,-0.07045955655906377,2.3485601453867737,0.4106123581171337,1.5679952759259366,2.4470343892151982
6.513130615230788,4.388682529485094,4.877738444467631,6.953748278297953,3.459719664893631,4.912020402183938,4.881216958526298,8.075609541166243,5.610949766713231,4.282227207988706,6.529412892633657,-0.6979074393224778,9.462754468710393,4.914013795107197
8.961702750890357,6.304906750346124,7.248931860378122,5.272340365561234,10.733945141908261,11.53119727778289,9.125930238382283,4.550328724803972,6.994937027781605,7.630396638964231,9.105363498845293,2.5712185582319655,6.470516801731583,7.025420637318667
10.77971377979511,11.191099123708742,11.027500971644534,6.45870915799801,11.569858971347331,11.404161957471153,10.09836810406275,9.019816482015136,8.215415423318053,12.151949536050097,9.581976474518562,8.638235267795936,7.136252962172058,9.66650394270854
10.940182221540063,12.128734439625395,13.146857482417966,12.03594874126359,5.3366766259861675,11.740738551161249,11.187674150811352,10.685182030471166,13.59919795168235,11.404451456931847,11.779431688228428,11.70412363466885,10.810949947294034,12.960930537236658
13.487124399646952,9.722541357298425,17.35386020401024,10.093596149361503,9.740490427190247,14.149190719233737,13.381410252348221,11.14391836205048,10.138885939539895,10.935500946817069,13.089393542145485,13.714215709139156,10.171437518102929,9.912939130945876
12.285629675465758,9.936570410740574,13.676137075844276,13.90021523127172,11.765458958512118,12.557557204166887,10.354466652806188,13.376296113998183,14.833760016873251,15.856917627431606,12.592001129546938,16.254670238683556,10.230506881486708,13.205200440357393
14.449802515236449,12.586776541361687,17.668272350891097,10.279618669165156,10.794401766553062,13.93232551981916,12.84389447430443,13.169745179512777,10.827564340261828,13.488861459929042,13.314816526809372,13.028043189076,13.55319487558184,15.07154541128323
13.702023613247581,12.845715209697275,13.461747962906843,12.534135659246601,15.06838026647541,12.558761872295454,14.953059021902245,13.191164762691937,11.619512742582138,18.216488873322056,14.416466203357992,11.358527428519784,11.984633268143861,12.643027436019095
11.813729690433895,10.007384304903823,10.803448422022882,14.554041057628748,9.976386598816148,11.111544806893466,8.630112655763131,9.868288252403232,12.970718470535402,10.325912301419816,11.030059265954609,11.347928444636791,10.28402835039634,12.146878233486216
9.420431160150706,10.153049634625402,8.325052172012608,10.821631484844776,13.376615968371993,8.293112240407087,6.967268791515212,8.649275100945548,7.150373088993902,6.414675591894024,8.250160534664202,8.06462757675369,10.00756934587315,9.686791124259717
5.641481197795103,10.607503900774265,6.809764730902969,8.091477949102748,8.720604799012362,5.827962207482999,6.892649777144479,6.903857957034732,6.607395893680622,8.243143928214693,9.285482926783983,6.9575462905471435,2.894308558918605,6.252693494483299
7.550277806190114,4.5552178081118315,2.528384810044841,4.257168693082797,6.026423059518815,6.409072995962644,5.495780219732202,3.164488146004371,0.6128050293479586,5.663016297272999,3.417342413651885,1.2149737862183017,1.27989466805324,7.2502392540654474
1.9680357633083385,-0.3539682679199505,1.099237461660991,3.974832250756922,0.8635097806546645,1.1707442177325533,-1.2493898754752013,1.3460098592664824,0.9111469703221249,0.49519529435152254,5.150317478596798,-0.9899597752901628,1.3725686121471807,-0.716548923858763
-4.269900113070417,-3.2508763312129014,-1.6453021272387491,0.052551349712310236,-0.10803627319009591,-3.45704086943514,-1.2149175321455217,2.1732316564612937,1.4720245955694495,1.1992732537737696,-2.0416407172205817,2.435019897822679,-0.9057125568199103,0.7557063955385289
-0.2871461981581802,-1.986713696364451,-2.1609546685991807,-5.1163729303646335,0.061497816319676435,-4.399405198917501,0.11527443447720831,-0.40532315449849454,-1.0447802839289877,1.1706211137789182,0.11314162178134946,-2.9771486593286927,-0.7773527386696691,0.5132141207808762
-3.0316948351927913,0.8348553703159611,-3.0218367335259555,-2.4483992530390033,-3.2781383967468773,-0.060529971340776534,-2.1380679253862795,1.387642567925138,-4.074599296494845,-3.5739693658971166,-0.6376746550542958,-1.831542409506255,-2.8991459359649085,-2.5778637909007207
-1.0704715151030508,-2.3360914981018857,-2.363410968891434,-0.37385266396546335,-2.7468177464578956,-1.8672253071600458,-4.110465442841052,-2.54538733670226,0.2641261352204114,-2.7914047909373525,-4.5431410405775,-1.299029874524846,-1.1228530952417926,-2.3413288440839968
-4.526322262787552,-3.8002203513059634,-2.8528394949055476,-7.727134397336448,2.5447730379322997,-1.3267150809983748,-2.0791070014250552,-2.4094600484729956,-1.861544153634919,-1.1979506618335451,-0.7833778664229003,-1.0452954663385834,-2.443835811015489,-2.386237864755212
-0.44342906311173147,-1.2553129613180678,-4.5168039638345725,0.4262631979164375,-0.16990069700924204,-1.7037397624293231,2.732459556277165,0.6330295864487852,-2.1030421374436705,1.4533139527713992,-3.6192553675743975,-0.5564540218030813,-2.189115200700814,-0.3662317741668708
-5.376022218222134,-0.31269811172408213,1.131817137195282,-3.8417977202611495,-2.3021314666310624,-1.7078485848100597,-1.1455272724884318,-3.284590275513339,-2.1369617864362236,-3.3082284119899197,-4.08437259967761,-6.4791502565410815,-2.688053946496486,-4.199042486449222
-2.5262736380501236,-2.2276310612681045,-3.4540438985664954,0.2000556211865585,-7.7347063720813924,-6.3317698752802,-2.7851107246076463,-0.9131925657538671,-0.41133563783994065,-2.2702523680607087,-2.7786303152244622,-3.804571705092367,-1.9772707842108448,-3.2228270160169146
-0.5154479152747502,-1.0001225944916197,-3.7561660543671085,-7.120535018415788,-2.013436302531255,-7.1026743581177545,0.05028882747679164,0.8482998464699496,-2.679024619295323,-1.2237442503181306,-4.895560069896572,-4.208981048285091,-2.323367457459791,-1.771114255951236
-3.3608327101460707,-4.611005377447081,-5.1471676375666,-2.031254166060796,-5.3858728464255865,-2.3404012550519475,-2.862408168601238,-4.993816911118329,-0.980086909857913,-0.7005446348753566,-2.3545819266621404,-4.947291182947677,-4.573663001351933,-4.917607631039162
-4.400398229897174,-5.644651007367469,-5.461926010589567,-4.807054575470216,-4.719633486085377,-1.5743979231521572,-4.358928762361546,-2.850552203123467,-2.2760656816135345,-7.192456920432914,-8.702558376665088,-6.7045589369953245,-4.17553616214616,-2.462562767302644
-4.943047285099176,-3.8309838927689643,-5.04114120277667,-0.8616657794210467,-6.483445958354396,-4.6221136363909565,-1.708028269818732,-1.8008908134009975,-4.319782213179135,-8.268496170708822,-3.9060214388755385,-1.8226342110643041,-5.843030676293648,-3.737329180358061
-7.980865741905841,-8.49418151278698,-4.001941894854531,-4.437651893441144,-4.515441540094118,-0.8842209730303603,-2.856080909831887,-3.9402208568400208,-1.2241145952217924,-2.671089472637414,-5.556625155481457,-5.358427860129008,-5.597888413215719,-3.919931243521168
-4.49718907937057,-3.7344498149998033,0.9908066352995988,-3.6223439726778834,-7.265599302293953,-3.789666310598431,-6.707826167445695,-5.836089981433345,-5.605783444756767,-4.292089873777674,-4.840244959205229,-4.562029817979679,-4.8047801450758865,-4.201910662251764
-4.988989480755501,-4.9381343415913905,-3.2589359894467687,-3.4628153225119527,0.46069738390315385,-5.834654283095935,-1.9121017721022573,-3.1756170729149362,-2.4475546275023548,-0.6195928100281844,-3.0670848733446543,-5.473076162005938,-8.41253643671178,-3.677593086399759
0.5495515956238068,-1.0116324291700796,-3.4565257841205823,-0.9206206539587374,-1.110640519771871,-5.503144222446926,0.22288548000638775,-3.044316056199715,-2.4306652175532584,-2.0935588205468636,-3.522714699763939,-0.8494343837641378,-3.086754740597762,-5.032533890724776
-1.1647929687309198,2.660516216955949,-0.2442982028384557,-3.7409080844729647,-5.8162369831884595,-2.7022455514852517,-3.7996496041371612,-0.9826515098133061,-3.7090014049833,-1.242465153751763,-0.20871954465550058,-2.9913008234295724,-4.504624430563528,-0.7340849080204266
-0.0694829543437625,-1.5500885486446596,1.8997927500956922,-0.9138123243223132,-2.525416120285997,-2.2925222830735947,-0.03611404332597168,-0.5244902475007565,-2.46249556270835,-4.012040836415294,-0.4187714815524013,-1.7013210321489916,0.6330303570621088,-2.575477443108603
-2.0161474316531947,-1.9617232934533244,-1.7706351635365645,1.5982034552759592,-1.4643271368475403,1.169609422319084,-2.7278742544643766,0.6109610309611397,-0.3906018026355662,2.6608026630968906,-1.2707290946414749,-2.9832704288313714,-0.6588626920153933,-2.2405973895267763
0.962604113237846,-1.2113143940484372,-0.30667237777786693,0.20176515590615962,0.1137988417045106,-5.058588101814512,0.21982229311406842,2.2117750437240056,-3.5297718079499267,1.705588139039678,-1.4941086240239365,-2.9039532424748606,-3.602494938924796,-0.02722090900921037
-2.0808401123675413,1.088559674301895,-3.2936673099044125,-1.1771061044597286,-2.0921542677312375,-2.421704228327971,-1.1427789089764615,3.180524484249471,-0.2634644876140517,-2.947722242097691,1.1539865454947977,-1.2531502725002115,0.557357294804498,-3.4158994345832268
-4.744748615609911,-3.4780037285668746,-5.880027195817254,-1.904183189790479,-1.0250567438377105,-2.7419714590297803,-5.593555268451558,-2.115973362857442,-4.1466133311396804,-2.7988216032171334,-0.8340149619147237,-8.062851477168703,0.31879880548494377,-0.9936271021108716
-4.676973762248644,-4.217828109678786,-7.818611636224061,-4.098315678048756,-6.5983152984515945,-2.2316720373581207,-4.9405146066408365,-4.077088297043023,-2.5613483419121694,-6.1166953089896765,-2.55755074923449,-1.2670684514382402,-7.0172416305427685,-6.4304270584239225
-10.025679727540396,-6.241095056829412,-2.583954996200959,-0.9631873009571881,-4.204346227000111,-6.448753158470549,-5.136843536331213,-3.424991689223436,-4.280185061608876,-7.26102136924723,-2.282599218082081,-6.0783190809092655,-6.908208195274629,-4.1169645732734965
-6.911412138258526,-5.1985312737112475,-7.114603139432746,-7.063367475336204,-7.234668697742182,-5.283657101695936,-6.265947191920996,-9.206418587002577,-1.415917462644921,-7.385923843945692,-7.134242504785908,-3.8800207842791803,-3.7976063885160163,-6.92752575982014
-10.252867423636758,-7.090342097901457,-4.340035102994978,-4.115594979982994,-13.189983525021791,-7.484574792700773,-4.440898945225319,-2.59363797439232,-2.189930260785027,-4.274753178284604,-9.098280773324802,-7.747704312579777,-4.219326803310532,-4.2936838435894025
-7.174497999626631,-3.7501667239318635,-5.030867628750117,-0.8978358872537822,-6.125275195700568,-2.5713339017313688,-7.618915683817558,-4.293949607639034,-6.189034303978946,-6.961663583477615,-3.2005488051396673,-2.8520216432611587,-10.607982508674265,-7.770458701430142
-2.791989757877611,-3.753745518707415,-5.3015145336551965,-7.443491367280661,-5.8284085591007635,-4.975192630024601,-4.7131954958525295,-3.054930556506799,-5.251942019589025,-5.670260297742369,-9.938158475569427,-5.338221071385544,-8.7372510867776,-6.636508514732315
-8.152980148652373,-2.149196576088733,-2.2751494314033964,-5.623455816659023,-3.8069373951146908,-6.091064365138267,-3.294768924232555,-3.9806006369022486,-1.4321538470353494,-3.8596212329567248,-3.8189250802187127,-3.535264509449342,-2.6387467531464734,-5.753050929520481
0.27979071536336386,-1.8202423644761272,-1.0967261546015727,-0.498660510031798,-1.9346144283079085,-2.112956791396766,-2.874481654591073,-3.5787373757197685,-1.448805809208546,-3.698486423696002,-1.9661384160488717,-2.7988732098211226,-6.453002245386947,-1.4458909631988999
-0.7538457457739313,-1.7451871537671353,-0.7775430226737348,-1.2641985533071243,-3.422335792349008,0.39398808281663883,-0.44567004426248924,-6.525787869310002,0.768806664416557,2.3465781525043603,0.08037068621673146,-0.2519346100065295,2.818933035147885,-0.07481954928466103
1.6033128659043603,3.5308508520684727,-0.4647346180739018,6.09586583975996,2.3358669907027565,0.18555912439292932,3.0293315398890184,0.7853678037125456,2.8150052405799824,1.3539430875889735,1.1938971217630483,0.09142048246618639,1.4714488647782455,1.1657861993138694
8.081321612714046,2.053115431835147,5.831293965684731,2.639013750754841,0.2987136143014064,2.7021313813211334,2.438004490170144,3.7443670585716045,4.309867244153266,1.3581372370620914,5.969829305597727,5.973383040482434,4.350332688806497,7.0090354916259265
4.760754436353271,7.472203669901242,5.817357595919486,3.9041610037709025,2.805672849214394,8.08725690063871,8.204161087510695,6.0191317118806,5.342278352226117,7.628763148437956,7.250755102105791,4.664423818629369,4.9448671357956115,7.706208413868015
6.906867894472681,6.647876291249782,7.340604690687672,3.2526904147015614,6.834603404408133,7.488002924057236,7.411619817148962,6.2083219744169735,3.9488530640357435,8.950288235962725,5.328982543020886,3.951918346954775,2.260923323348579,5.109132051392814
7.928908484021777,8.9964017983637,5.450761484165749,5.7482555927052985,9.47906062366822,5.190242038879806,6.252195574755984,10.897321183621104,9.450612632459736,7.606868822809634,5.991633526448419,7.255686685309443,3.771422132344908,7.060778014293494
10.384498383312526,8.109688602621834,10.341737854193326,7.515328482769947,6.719502974233277,7.716233991103684,10.088048602566346,7.933337304365021,10.097867584917594,11.481443263733587,6.811273636908814,10.267879056730703,6.757260897057586,8.840840503480063
4.291891235099535,5.885516695936756,11.291298570143095,6.1113472257206976,6.347879977831058,6.342191190658429,5.200131426791311,8.12251936129564,7.252316923085591,5.332460587488034,2.6916491702596597,7.769524375908525,6.898788230960653,7.800596573069015
8.61432650643589,10.379337586675108,6.050315833448845,7.826449398705628,7.641567002183647,10.945924610206102,11.26948811603216,8.333808905207912,7.98408443765242,11.74765739348796,8.207003126984299,10.739786817906193,12.711372498052357,12.009720348562837
10.071336476408186,9.491380304721638,12.03442732670682,10.827638364778148,8.867447000891998,11.494889400528201,13.208517819330513,14.994564609698758,12.791316117815178,11.58689089695933,6.778165616827751,8.20160966280329,10.694687537223395,10.05122238855035
12.181253200768637,10.992186054223453,16.12236052475981,11.897720121215293,12.641409295886445,11.650794269157814,14.755263759278577,11.458397073996295,10.242932835531306,12.567535347835022,11.388662763856448,10.645683408237222,10.068157834479178,12.208945899257749
12.297094319348021,11.199373840223416,9.379012536017981,8.776034687167352,9.086133324215046,10.807920524606896,10.886748291240337,13.679158623189185,14.587369654278234,15.377998585532076,12.852129636133084,9.165897699185331,14.722328407232649,13.074365351439791
13.721620644573976,7.159141522391359,14.507983045821604,10.671227921609049,13.161052024042332,11.056079220988755,10.797103363572882,15.221081690290394,15.334805620036242,14.102241239590565,10.246266387530358,12.707142403485713,11.412030485417274,10.787407380914424
10.770985786153135,11.733783234170405,12.204263214792967,12.31054033592711,14.234938140768616,11.831954116489488,8.862987488437144,10.497305820750844,13.605174889584363,11.753842234388308,8.94114121644806,13.180094817874492,13.17979833104129,14.309300338815609
8.098897850746358,13.671980443041697,11.413780749131934,10.671127930247337,8.698873837170812,11.532372511617632,11.144675163057185,11.369071127643071,11.190763726900318,10.75940831090904,10.75814675921943,11.16363953871128,12.63704289928359,11.65519095941219
5.2795097422133646,5.020117060992745,6.3939602778747,6.995476568565504,6.450750123523296,7.687532525330427,8.61596991407567,10.475509415786338,6.090839242073331,6.53707256052963,3.6272048215422314,9.3210989142201,6.787744212245483,4.250465822265815
4.8215062275714855,6.779777858828937,5.922300435749732,2.595753660294914,5.475514889334469,3.4933147333938113,3.572270118415459,2.248637775880538,6.0383784943181436,3.83343345749968,6.275515275169403,5.6422551866960555,7.475288744958197,6.835257253930857
4.839392811080736,2.9775508346301898,1.4414792468742563,5.567172212144618,1.4733741356783323,-0.022571265930235285,-2.0692930929667845,2.1919015092971352,-1.733114015018569,0.7713566300025296,2.5326239954424827,0.7374548323700971,3.0269061872913854,3.532122376715084
-1.2247056713540394,-3.4551000212746352,-3.7523043461400283,-0.17653084017240506,-0.7819549347091962,-0.08097736392768717,-1.037659681797669,-2.4195968183323453,1.0083676209739523,-2.0727611937176924,-1.1739500185755594,-2.1681050313780466,-2.3996917659016166,-0.8518223529955161
-3.0825406930803756,-7.541105947479046,-4.283506468641683,-4.154960657102494,-1.9469590842688103,-0.7467514648479598,-8.166658941865663,-6.412584753330833,-1.573302966345734,-4.235721601197003,-3.719500076968143,-3.685366014685552,-5.457119581656907,-5.615945211391658
-11.496127553029563,-7.468084724912238,-9.749217606346395,-8.810605059373888,-6.144639353092932,-9.509127372565036,-8.886713697697822,-8.941710596386308,-9.250216835481144,-7.339317640858825,-9.873672531443178,-10.446658279198635,-4.480548651362358,-11.214907506347721
-14.159024440344657,-15.637730878513127,-16.39357804834654,-10.855567188207921,-11.937898538406952,-13.542887776044202,-9.189821114273112,-17.0502298820252,-16.339505183726164,-11.566253346644249,-13.525881026374243,-14.461350621701456,-11.616120986881558,-11.158408792527572
-15.114771759082908,-10.293244384580472,-16.539404171643827,-13.382511527734179,-16.855451984179766,-16.536789476696114,-16.659025507950698,-14.71078671481785,-14.904206958001746,-18.525980544719083,-12.853961246633999,-19.050196045014637,-15.608466279896712,-15.880032617053057
-16.999885317476977,-17.067330469809683,-13.025424945477175,-13.81196870679775,-15.545557258946998,-17.950736776190812,-15.826998769133523,-15.334707188189334,-19.17038791274961,-15.67388516189542,-16.741861661054514,-18.001747936687185,-17.13630016246068,-18.519891051309074
-18.404425757269852,-18.378652681793028,-17.383474629362734,-14.437591323987668,-17.616962053926557,-16.953900014687076,-20.53392003216684,-18.100295658573526,-21.990123311743325,-15.008969678577579,-17.461538318192844,-13.295624423557882,-14.051503940945443,-18.812398966293582
-19.004876919284243,-20.709345600012114,-12.870642892369402,-21.43974391096519,-17.709744562708803,-20.401445834822383,-19.730611146589126,-12.681176748873064,-16.138940315272016,-16.44221728363397,-15.630544213820436,-16.840341306471235,-16.32175434860194,-19.14995033021472
-16.716197590468195,-18.707928523004195,-18.276027512155835,-17.314166377231917,-18.860850538536006,-18.54490840984062,-17.84521205452411,-16.830621032398305,-13.510665904896769,-16.630164908133374,-19.74281970236491,-13.306336998397093,-16.870764017123513,-12.862266000861903
-16.704411917520495,-17.90104293858511,-16.884164502513634,-13.497295784771813,-12.540194949743533,-16.43771317385442,-14.297763016143639,-13.788020581126016,-16.027691902938326,-13.53749549929589,-13.96486019856358,-16.921374015097506,-14.89800352106797,-20.194514082386014
-15.824778915139735,-15.975763020076622,-12.993660677659664,-12.789594020220198,-12.113373790721628,-19.664784825322855,-13.708759625445982,-15.031283440667591,-15.76993447851929,-14.678636339048664,-15.718672057643614,-13.372567940403197,-13.202812818799824,-17.559659837840286
-13.156299975403712,-11.248650298111981,-11.08746950414972,-14.65250930098909,-15.216726860645732,-13.500009579019702,-8.555192666327608,-11.653897686607719,-14.483770060080117,-15.842410544964359,-13.549039651621754,-16.637203918582706,-14.51618860526324,-13.334830626403711
-10.190872122371031,-13.276602437729473,-13.172828807322393,-12.718177432198793,-11.088056406057053,-13.096913043034123,-15.48035350031116,-13.739909543015157,-12.410450430070263,-9.13516326574435,-11.053088098525754,-13.40371740310879,-14.490904830698812,-14.57426215780827
-10.761570781471798,-9.778985158610201,-7.525523268499894,-14.420304512048762,-15.052684365453153,-11.275271938463998,-8.511176629397035,-10.643158744220857,-15.723492872494049,-7.619327981121581,-10.999217828582994,-10.685265321613453,-7.875556443388801,-7.71574279912629
-8.409432277087014,-8.143244863803522,-7.074420437767365,-7.064334287970074,-5.766061556643155,-10.024055976620264,-8.906235726464741,-7.73454485139427,-9.286804139995796,-6.249830914370291,-10.088932436413407,-6.813529762914277,-7.491620359481273,-7.105555294838892
-5.527035937938491,-3.052759370007508,-2.6641984496230906,-1.3551623980034684,-5.943266268370256,-7.44754749589076,-3.4191704547322415,-5.058315099973282,-1.970565203818845,-5.363587354981437,-3.79582453730937,-6.702459490438888,-5.2528166201116875,-2.1106078442350467
2.354354153112756,1.5737965219181749,1.616371156539009,-2.8307720198447046,-0.7797865830137187,2.993417065409079,0.4717280131158006,3.3947275095114424,-4.959074254092335,1.5270634790309565,0.9985476763717629,-3.908952395544741,2.037349033668389,-4.029651315543886
2.040466282422154,4.148656748737004,4.167497312596717,3.8544979099198238,4.42384747897343,1.535918359908516,6.9144601939306245,3.868231448661117,0.01144048542713616,4.151355990639144,6.251820508410149,3.906089554841629,8.277844997215091,3.295741679570712
10.938152810167953,9.599937220897111,8.648267211128227,4.395012182306033,6.529110539568526,6.523900218373644,8.158632615868516,10.333681634092727,5.4783033358356175,11.269357664242706,6.9598624130824245,5.039720566159561,5.781120884981744,10.164251944529026
13.816416098164723,11.119360798025554,8.467573868764454,12.419734686701254,14.384628254240432,9.742260497631946,10.401653314377343,11.643450448322044,13.2845286979656,13.324756064913817,14.339154218412217,16.437597003701235,13.37541230009591,12.836098395439262
15.120541506855957,16.116743033706868,13.66976243113405,16.1138728703513,16.584803354538682,17.195276527072707,17.144114050060402,14.570801249763836,16.712595831600026,16.734512236107673,14.801178809371674,14.525980134611919,15.959761017985764,13.214929825258853
17.926736190467185,21.64167211216779,18.427358833672262,18.846526731305783,17.04018227340804,19.43031813763134,20.020333558831204,17.49338816312974,21.507084388924305,19.70687343741012,19.703988693689404,21.485399546017334,20.95769545637837,19.47505347636269
23.987941851999697,22.552709121201186,25.361105615652914,26.70958064489337,22.457175337105127,22.58895878507813,22.729604099627426,20.618100231968775,20.942093889003633,21.97741228341243,20.69273101135459,25.163474356737364,22.36806906440059,20.19916391025999
21.719661798992952,25.945076295626876,22.093129078910668,19.911126415724013,22.83646921624466,24.49868226076475,22.21538714158795,20.14616758020832,22.5432378003538,20.283934184307324,24.47613454059937,24.300359103892475,26.040344774157553,25.38320408292559
23.531731079627765,21.972362177834462,22.263101268699398,23.610928337627737,25.105744993352374,24.04109791000712,21.276757398909456,24.000207620948903,22.354037156147502,23.23674804866503,22.714267828144504,20.58399476586701,20.7461364556848,21.701830845818822
22.077517794502832,21.056362816329393,23.09667728846784,25.196500368367236,18.106703252795505,20.08577930930154,20.11785764400497,23.753174565421123,22.20735895400629,19.02229299614157,24.109333231917994,22.52555652784945,20.76708440694938,20.2921660123922
23.542334350423435,21.50867804314317,15.696623211012653,19.365246482331038,16.138835272957365,16.272512593816387,18.886503406825952,17.132508162570947,18.97378339997072,18.784804823798442,16.6793899795298,18.345054775608265,20.10133648203577,19.968601150625137
15.727823912836586,18.419755151669133,17.023496867567893,16.59421804467178,15.82656387667889,16.22058469851638,17.411518084408947,18.086526838845398,17.957810195286882,15.751679265941794,14.961968935056252,15.484088730411838,15.675347617383851,14.192618208882694
17.55012993282348,10.498474470327112,16.98887716144204,12.69911075843131,12.392227175375586,13.865458266203673,14.953049646325535,16.022167544585805,15.942519973476287,11.571286090529636,12.434083413918446,15.896085047632067,11.715227373462456,14.824978485948641
11.33548440823769,8.261511120474843,10.292206735302864,7.83835842256725,11.596435138558281,9.146015459943193,7.368127192220332,7.689679004224027,9.290957683565022,7.732678979674878,10.560109665681308,15.990286103397949,14.264950613203968,10.507673869759913
4.754922170241243,8.319969584243035,6.475366583189114,8.643397947968866,7.5061999188836985,6.09671920359929,4.323007769451824,5.769914321279612,6.77507143790777,6.5966791371779365,1.1053861309422777,6.82488608015044,6.904589792036866,3.998413563036309
3.2472928423051095,3.9785979055677236,3.7105017736592973,2.1360897286476757,2.0978129043926996,-2.797921699018814,4.039757400008701,2.068461639290614,8.316372155180698,1.5840620799226932,4.297451574696472,3.7146026029023935,5.226777503146101,3.292002493975445
3.5104331042754766,0.40611786993069465,-3.164580662406284,0.32794176069652337,-1.6281460153252323,0.23726726070158555,1.1754034303982777,-1.1057927754993064,-0.9486105498329289,-0.3605097305718294,-4.012060286692767,-3.9321583589682523,-3.03805398246432,5.956032155135368
-3.619010304044594,-2.488197854462989,-1.2389459415743902,-1.9206683044460537,-4.416144680394017,-4.521217489161939,-5.881426782010722,-6.23392230986318,-3.3281111624302717,-8.1373782711284,-2.7137054092054753,-1.057936920691097,-4.320761561120196,-5.028351132453611
-7.792373849111183,-6.381690353025485,-9.166780270925265,-5.357039674001381,-7.566873161700115,-6.922065572074032,-9.288749831200999,-11.737437709082704,-5.492714539299227,-7.5832811885850475,-6.065982059697838,-11.499251800098715,-8.932949813368065,-6.978357262881151
-11.070692223962151,-9.712560344438183,-10.775079597457848,-10.919216591490972,-13.286410467461659,-10.480725068731688,-9.630055956660442,-10.17063420718864,-8.427771829655926,-13.794954041020317,-9.966548611932007,-7.5458970971068275,-10.270424103729024,-13.895934519110199
-14.077610569171764,-16.528948996954146,-15.18052658952588,-14.004545419008496,-13.085047974220515,-15.476700578344692,-14.235667740739249,-13.076624773388357,-14.588726057137691,-8.030079716098872,-17.774350580426688,-15.132354129643758,-13.194177200297359,-12.053891303272135
-16.241826356854606,-20.052791924989677,-17.731189508594536,-20.40223884469185,-18.976367146202094,-15.735109603285816,-17.035875140082467,-17.494893407342825,-17.71718368231173,-14.905980124561987,-17.57819233191845,-17.17825992179598,-17.969659836992857,-16.518808051880274
-21.559818201222757,-18.849153581693347,-20.189188325008594,-21.440564356738903,-18.81019341569718,-16.9117151609988,-21.494464131138646,-20.88855678548029,-20.13274577366696,-18.583873898914383,-18.012875633920117,-19.149903422791095,-18.828442503714232,-19.735325331980423
-24.13993616528273,-21.403413973627128,-24.632628128503253,-22.934807510972835,-22.396407285370564,-17.62565217480902,-23.613820845776317,-21.743264962907713,-19.53917318386678,-19.948561286568705,-24.150645469630437,-24.017785355492478,-21.39480202475115,-19.625355363666365
-24.270215888207797,-23.371095123038614,-25.12969355602671,-21.05846647778221,-21.563102157053343,-25.108501974838003,-22.57226366309534,-23.251527916856972,-23.55732747536488,-23.561053617127463,-21.72890319924822,-25.87021698020256,-26.255889541418494,-24.570333785599473
-24.65104782666519,-20.98114696690609,-21.18512627425626,-23.649971311513923,-25.7343633453345,-23.382523013673637,-20.336495103883657,-24.424201825805664,-19.908347285638285,-20.43977733131548,-25.80545824628032,-23.033268762992705,-22.153857035279167,-24.41828109724926
-19.215907118100027,-23.174012464774027,-23.313824863036057,-24.41682141186838,-21.451741590497573,-20.400183524339656,-21.627165221307354,-22.73701992886184,-24.405263865304136,-20.42951204521256,-22.55612600297983,-17.310725163221623,-19.665199646496887,-18.731165826114196
-19.35460199429433,-19.883607726097562,-19.92944299205855,-20.614096601247965,-21.64607693091178,-19.82448280808232,-19.862746933128456,-17.465993710825625,-16.3161707459506,-18.465555838157403,-17.86981134115731,-22.250513588113453,-18.491893624645716,-19.241219120052968
-17.199999429593603,-16.624148267250796,-17.148460894394304,-14.160259251006297,-18.17165181600508,-18.505351989242307,-13.7220982899986,-17.891731104738795,-13.060204303857905,-16.12787768640977,-17.987023187768212,-16.67896129034429,-15.852605863123717,-16.330362793594375
-9.988589208865523,-11.62652345677485,-10.412305633674983,-9.662747127194145,-12.99082358223925,-11.173549353928866,-13.32999991490318,-14.533184914294244,-11.199413463818408,-13.050907375394898,-10.04594792112728,-12.522696338076527,-16.390602664059564,-10.767437710483255
-4.582086769055152,-6.461255828592878,-7.016803924353383,-6.863124285093978,-6.721108513708728,-8.821089676348176,-4.972776324813376,-4.385093228573982,-7.327752112360287,-8.355384519881946,-4.546125499766946,-7.219330500548487,-5.664241802790864,-5.416287881600984
-3.2080083989991914,-2.8367457086517485,-3.007775050299321,-2.0433308296669535,-0.6276655319581457,-2.5330757987701076,1.7274892719079364,-0.1087545162665533,-4.31540295095336,-4.88078196993132,-4.367433419419715,0.18359470142636036,1.219791883062158,-3.9137743742001945
-0.17977263594143578,3.273197620612276,-2.254896329417898,-0.8598363423590663,1.8501064193309948,-0.6068218681821025,2.9155405816877202,1.467765667230482,5.436591978856538,0.6890141844545504,2.507571870349275,0.4901220185545583,0.16923821560053298,2.452383067325373
2.9283310693162377,2.5096354557230263,4.017832031263417,4.348167000104322,0.5211680243157426,2.6933674234479157,6.581982299692975,3.90078511660247,3.386918710213805,5.196422463168066,1.3726329588286048,5.453018360457763,6.0455102373192995,8.367888765795193
8.69026616997106,7.516632747890488,4.845292792421186,9.63560474181905,4.829186403180152,9.474355027240774,12.027007371040519,7.2494664606054,7.56868111650833,8.87794647793211,7.007299186978826,8.435951022617932,8.097732506993086,12.027848790318599
12.502617437394392,8.697312233704226,11.84014315918105,8.41947066481244,9.98687113655135,11.198081896160735,12.536500658899119,12.779349952894908,11.222283013859233,10.301110621953757,10.931438143629506,12.088868336512657,11.43325380241071,9.466476404121694
15.769776008874793,13.99100242468816,10.61816531110122,11.629390933454026,14.08891593276229,12.448915009738288,13.40718307959917,17.33348088831665,9.505185433840623,10.69713293062348,13.315592202706375,13.475910649569839,13.395735852816891,15.819604483847094
17.08117863783332,15.434864990909462,13.57946233944069,14.984228060853525,17.097415868881196,16.782922549126425,17.14440635478556,14.202774961983716,15.214347753555108,13.191020407228223,16.75575975203649,10.59385404876327,10.532385395016558,10.141687969776326
16.69690082608518,19.56126039336908,16.446351281179133,12.949587465734895,16.16782687152689,12.718509177477923,15.025259373613709,12.682797116180502,18.57355992479452,16.78570466447892,13.196376402864928,14.329566180196146,15.483842481320396,18.675766011105388
16.192856259331567,16.058253303086797,17.275019996538465,16.23173087328718,13.943209271684456,15.416044337905054,15.341302555676235,16.92747095202573,15.290030498798037,16.692503418084133,16.719384434315998,16.372870546169935,18.313684322180954,17.812659365827887
15.82923803111895,17.668871607282984,16.48317197095094,18.37744722164318,14.74330905684877,19.989872105328264,16.793743534470202,15.881951411248451,18.626253726644748,16.736737238861483,16.278392128192134,17.930624744858818,16.60503115640517,17.69982840891523
18.346862098620626,19.53749472832886,16.80210056410594,14.82287497944848,18.672101584024308,16.811185099193725,15.962344919276626,16.927252318025133,17.161864741289712,14.020480890124533,16.903291100293927,20.99276625690119,19.40563150739072,17.296486115871257
16.79545814047902,19.36576125663719,14.097047474628951,15.74551109947081,18.241624672170655,18.66272125932276,19.706483256996297,21.58796349065742,15.733164083110879,15.192700547993244,18.896193211754426,18.047799121241297,17.264286522384687,16.792478556706104
16.32928245909437,12.448503045193958,12.312350928640559,15.678994758104059,16.47985435970067,14.155770400622727,16.63532730670724,16.871520003274004,14.69750017867246,14.17454280333136,18.76267891021615,15.41809477946205,13.154006156277813,15.021972632768126
13.496230580672774,11.990426170769997,14.027633519891962,13.027977973988916,14.185041094784133,12.794560235740533,12.262973158025373,15.34989540654387,16.685887278219884,17.19917888434248,14.562564321017726,11.6920736324693,17.461224033406033,13.54348064410086
13.98916237887978,13.912352741426949,6.695315898060513,12.808809851470885,13.939343050798252,12.588053799379807,13.808958985827436,13.39102301057897,7.712216929947349,13.960790715469305,10.950222961422941,9.878215036293872,12.11780071714709,14.627077057441483
7.842151840426932,10.401917954902238,8.394533087689062,9.202931936025717,10.50606302074362,9.918955611016209,6.772592097085152,8.876973268908959,8.808005386311976,6.754840679541103,6.448674963385262,9.110361024535475,12.013925874617664,7.628617549009251
5.631746503126622,7.639746074781539,7.341467413706836,3.3196393216712834,7.798408993702154,5.409336126213228,2.521868568708117,5.138119784449759,4.336317158415051,8.122228565821057,3.7075480158530043,3.969339766195914,6.249982781170815,4.847610986495882
1.3415780799929198,1.6257124119203668,1.8166002254244602,2.682656588554577,1.8585237186984886,0.5789084562693965,1.9516128036426723,1.9627917375429433,1.8500809784640153,1.6793727357931703,0.7115747103358233,0.37721104861401433,3.8634377253496015,-0.4243230235239678
-5.661797675809172,0.06864549429355549,-1.8536411829395534,-4.448618150188574,-2.495379392856535,-4.637218815159885,-1.087134186437875,-4.567331475412176,-3.9264705251796173,-3.314101574949361,-2.5093953854406803,-4.418768040272628,-1.260990758749783,-2.0022285819935792
-6.811348904959705,-4.673422121942871,-5.412516930033612,-6.264605407179195,-7.981501284860078,-4.886217021930178,-6.2706227258339124,-6.440586682236017,-6.250268518455358,-9.65703169178669,-9.880503606847277,-4.671252349472699,-1.6048843246190048,-9.712181540567123
-6.169437415544676,-10.943946816437562,-11.787348770612603,-8.851716057906335,-9.945710432870928,-7.556447935556701,-9.713632076777767,-9.143083204467075,-7.50960727885925,-9.900705315632337,-11.220686584917598,-10.515005021777036,-9.101545567883786,-7.429774871772484
-9.602995280460062,-9.300274810334558,-11.740072972874808,-11.06891888427476,-11.016363976409309,-8.506118584106451,-8.83889201662846,-9.562440233219586,-10.579785913382095,-7.723563306014232,-12.89014970172926,-8.43107126557955,-10.498810501802694,-11.60803610459068
-16.66283785171949,-11.991185540288425,-15.641401202245063,-14.050199372366372,-15.183921383411032,-14.033583536284748,-7.736927067405531,-12.754217778973187,-11.84818884525865,-9.527375450352293,-8.229420282888665,-9.310725457081574,-12.26134072997168,-10.279573160934312
-10.9973497905801,-8.911276921957652,-12.108040565184712,-14.542768102051241,-9.50773389596719,-9.645927514313723,-11.22878076263263,-13.91832900825934,-10.283865785190393,-8.360592422843196,-12.463106420737716,-15.32033854405063,-10.748927324179549,-14.203931267025677
-8.134977021137246,-9.756242764547302,-10.92712717977466,-8.635268965404121,-13.146817967336395,-10.2321726025485,-10.332662642447458,-12.52282817613235,-10.019575509395334,-10.791727156149943,-11.894256958962673,-14.330313280047676,-14.420674087417275,-9.966561357326128
-10.763267614279826,-13.08054481077102,-9.684725813022654,-11.0639556551251,-11.444154391885363,-10.463517664528503,-8.760898924959497,-13.274183114001428,-8.558476725255648,-8.0848137627532,-12.044815235783725,-12.933865159620396,-8.575966790760724,-10.908679043307044
-6.441849197888869,-10.823546705773689,-9.932878502915036,-10.743080483357074,-7.377832755916542,-7.721030701650246,-7.440657423634658,-8.61224031802388,-7.643456119239584,-9.91481828006199,-10.513894186406839,-10.25518447948624,-9.400113764609143,-8.221627043449784
-9.632543877093347,-10.347388504675296,-9.67315053129857,-8.79762404336372,-11.070951579002482,-8.326281480596855,-9.111886675188543,-8.98048950667825,-9.45559677449819,-9.975843684334986,-10.966667816820609,-11.793351355661907,-11.113606623748197,-8.84306961887651
-9.763505676963941,-7.81325025194121,-5.020944916145622,-9.341111491746938,-6.031151839483359,-6.66418177978373,-6.391715157940558,-9.618637478114218,-7.030715272487895,-8.461352059748751,-7.899115825716928,-8.727900155942777,-5.546265740682717,-10.882674654047594
-10.035723351403714,-8.950023883727544,-8.019254524940012,-8.163076688494003,-10.500714459873391,-9.46453759077508,-7.69717773622809,-3.7450213958261998,-9.405149557680325,-6.790151732812655,-3.331136507158707,-3.8315749536225447,-8.93524196248505,-8.608572909855614
-3.5224839566524064,-4.572569145300087,-10.18399557558814,-8.643580765840843,-5.590409743269483,-12.145212686702436,-3.0657436352701026,-6.157056497725481,-8.034453942001024,-7.781747950033832,-7.729400905168418,-12.11965089524099,-6.158762670624734,-6.365038444558731
-3.8661874259936826,-7.334211383549885,-6.000357479314321,-6.46324590616729,-5.881336596350646,-4.314568323027812,0.28679390298488006,-8.16357968492877,-4.150703881931955,-4.651800127644215,-5.5872366517406356,-3.942559917408361,-5.683255403525209,-8.492386661928833
-6.801998862809566,-7.3806804012487355,-6.55208968343754,-9.573803306022764,-2.4796932931813562,-2.59601432858878,-8.620239650952481,-3.879817354372896,-4.80189543311744,-5.188490373174447,-6.691907924617308,-1.9001363256152666,-7.066927181182354,-1.735950635895195
-4.059672543957956,-2.6056189626439856,-4.4955458434736695,-7.409086350913295,-5.444565819061681,-4.797085063032009,-2.816848431917607,-2.725710988816305,-6.252667834959272,-4.512710638812237,-2.1725235643214185,-6.684414148906759,-0.4814395515099963,-4.920893560819446
-2.0219450980683367,-3.369167628949731,1.3815075840690105,-1.2749226648713132,4.149427962694855,-0.38290109599544886,-3.6013374565026623,-1.800392943169745,-3.8749184591331494,-2.639102779266245,2.8035018435782058,-2.8720669955406546,-4.37666356932478,2.151247189863826
2.8712108648306254,1.727973928853848,-0.9442346783352396,1.49563619673762,1.8405657268920579,-1.2692690899195997,-2.0481159318642446,1.8830001624642656,2.61263218453555,0.3612546026956265,-1.7109857354537126,2.7643717687073757,1.2044399918414708,-0.20866402061296818
4.42804853443673,0.797172502492866,6.5234294198291245,2.6410851112718268,4.302408765774663,2.8615571001570563,5.38180424584176,3.369406835047414,2.1502745929681275,0.28589949250769786,3.8569202220836454,7.010007790921094,-0.3974142017068174,1.9781562661005203
1.5591001351075469,2.002786971264682,1.3008379623851005,5.361379229586328,1.2742580781626764,5.3628800227832105,0.8052679378101244,6.028137823491436,2.164264531304415,6.321101859847795,3.1289091470820996,2.5112560949366807,2.816553237453012,3.5852548252895735
4.259001743896239,6.212294016227869,3.7996089519689384,7.4446671332259795,5.916805530140573,4.55869614741491,9.206129217642122,6.4783652607847255,4.865552465265915,5.870138792945098,6.308535789749336,4.697852928149284,4.82385130503303,5.590953676782205
2.386119367498864,9.090878770145036,6.469802994558993,6.283802898867495,5.409914872094934,7.650549345917805,3.59923135076484,5.218412799993759,4.23943661322079,6.650393333744132,7.285844662550812,4.991838509382826,8.725238175237237,7.097263211100989
6.333069294588791,8.897968726697751,4.6761386561303535,6.344538082240524,6.464855467074145,5.00062787264034,5.397040050128133,8.624414142908524,2.7680616980216115,7.947906354271633,6.143043274523419,5.4919209849503705,6.273029847729584,6.30284263678243
5.794265464804289,6.486506819934403,4.673383276281734,6.553618614855958,6.245485685959452,4.221013313925038,10.216817029013686,6.515708824895597,4.74094111668337,6.2842659211113405,3.1277562907890912,9.425582063712906,6.350444520190922,4.761548999357187
8.58726190665956,2.1752990506778414,3.051792560903892,3.3201600875830346,6.323745607210492,0.6683258574585667,3.804598586709045,3.3793386819024676,2.138244077415919,4.908483988938834,7.213254304611979,7.638001752437521,2.643961739745613,7.017512674217946
0.4124589352934138,0.797375087781091,1.5353836785370834,3.9669039337896654,3.151136499598149,-1.4385523148659516,3.984390862914884,5.065171737786246,1.6282196706643988,0.8656901766497183,2.9296317325297436,0.7444288787475917,2.8313499295462785,-0.603581138258261
1.99150524943304,-0.28230790864920596,4.506890563062818,3.3096509542920494,2.5494367554047086,0.040111038610525895,3.253644125733678,3.3115861241606694,-1.4940505881282564,0.8149066658875117,3.106418602985203,1.8262320514460724,2.0221524857832467,3.3312636915225946
1.6057835942406167,-0.9612154391413381,-1.416792522082696,2.8348779110732734,4.064949706078931,3.345346105175804,-3.1048961369790735,-0.5338901590273997,3.8009720556385718,3.0420678401784045,0.47460300657675214,2.1547006717024164,1.0766575607264501,-0.4260597639162049
3.2154312561312697,-0.2080501831177477,3.0805766718330547,3.466522052395357,3.129705916774647,2.965903478657678,-1.1957392725640523,-2.776672918731256,-1.5985996449977293,0.878263360293374,-2.4179306074887608,-1.2316465785245985,1.8696617850900332,-0.38665224376169416
5.479680984769313,1.3760911632440391,0.1635987331485651,1.9489148663645612,-0.5192775518689403,3.491426102846351,0.5716467432443987,-3.450652083291715,2.0124768027287856,1.1491997843160189,1.4879769369441869,0.512426252719736,2.937277806528705,0.06809953697345661
-0.4766909717713588,-0.27334231205962123,-0.6998080264316939,1.388627569433613,1.9789089884921387,-0.9285355891159763,4.425194814691549,0.790794294525639,3.202472364884567,0.629894242407992,2.1723569879454763,-0.970081511668097,3.418107147391697,0.5451436498968996
2.3319504043261854,3.015840944425742,4.008954733067798,3.5317366679998856,-1.9210818786686916,-0.7805736569132176,3.575983594600179,2.2550521865718722,1.2633997404093582,2.457657471697628,-1.305879584690142,2.891901390259125,0.3345189738172003,3.270249724863338
2.490195865282826,5.943676476318721,3.3170026726027433,0.5287396589540596,6.432309296886549,3.7864129013499346,6.474261117174703,1.802080168744945,1.0595900600869546,2.944298496018167,5.447668725965642,3.015384950412702,1.6351971320142147,1.0141917690921112
2.6924974160421273,6.88245639072251,4.31354143626526,4.463035850725393,6.304493220610711,6.138916905951374,6.021953207948878,2.711029366796869,5.691503008876259,3.2917635725850114,1.4575813317436674,2.589456143249847,3.6187974397830778,1.2170078397415725
1.6828465053815358,1.6451295865497308,4.108449524852419,2.347140770602059,5.784488244728493,1.9104828639795817,5.252311903413384,2.5540961624976304,2.894816053166366,6.233630579077248,4.986444718755304,1.4693920187723721,4.636576757171431,4.965111143975389
4.18663301804165,4.818586258789545,1.2646526139422223,3.002304558141444,3.938446244329284,3.9327648957836647,2.5347147122696096,3.869462947912123,9.262635561654232,5.307992824201807,4.904854856550607,6.3044984438223235,1.951081189204317,2.977782450817556
5.365631839615832,4.577978863935494,7.234086902658865,4.858243752856191,5.342871796644005,5.454682948971716,6.0409778453929235,2.733510857302489,4.492927901156307,1.511302663164745,6.775645161460954,3.0470039935585747,1.6607252620456872,4.65932660944207
3.7520832816568186,2.994972599570433,4.849800843238805,8.124585902837413,5.745676391368077,-0.7405799993789932,6.463122430197705,4.4168441169980905,1.6838289808356381,5.005499160998674,7.960893494238223,5.261173577768238,2.74340836131672,-0.3107269176980463
5.445530902858101,-0.36200611501306623,4.4853068865072645,3.882196240268754,5.74457154488452,3.277644793759346,2.7410043882219655,6.239991031103857,1.4687676614654361,3.9694208983169763,4.312551733981481,5.741578789353323,7.924443208214973,5.197422556525502
1.6270078507082215,3.08751074139957,5.32955791248231,4.326035868578107,2.0353553198809906,-2.31616634973989,2.1191569907911427,3.217438340888874,2.2780363438231217,4.34470410237651,4.027550364200887,-0.23732054402742575,3.7897221690764495,3.0971081598201886
-1.7004676627389967,3.288333281178877,2.3164798204421477,-0.2157097679976565,-0.1481158597973673,3.337947399541028,2.1825097473704558,2.2997234624859897,3.8744065653559097,-1.0053374938752002,2.1467982084713304,-1.3191360522079734,0.5831765693603441,0.7081139725564058
1.7734587592880087,1.1000009347771347,3.0421403941234852,2.179317481614481,1.7643543422355181,3.5369520275691593,3.025754594663953,6.23925147919738,1.0034440846972648,1.6482547085728243,3.045136150356061,2.4053518243465457,5.267030913324234,5.267573591917964
0.05463194523024395,0.8197858099952633,0.7828920309394825,0.7369055296128062,2.2874971617937185,4.353673146203308,3.8528773311461437,1.455285957454673,2.3225255013748596,5.364075279588489,2.7266872254754575,-0.9086928230246114,-0.25911102721640944,3.0308906755028406
1.1787656915235138,2.1674240362356563,4.378870292186872,-0.4099405175444524,2.577517032893541,1.2341731712108095,-0.3693782991946879,1.7152467166727983,-0.011467062513636606,5.350460542868355,3.8219165071259926,1.7358167241661278,3.2232211834919493,2.403617655997335
5.881062246143745,0.7095165073041059,1.69159300355562,2.4615764978483305,2.169918912539686,3.136007082529891,3.5161556868334207,2.8349205521608702,1.726618863807108,1.5901723890814758,2.131515067536403,5.096266509370317,2.090857445583433,1.087202714446845
1.3429459799329235,2.0990544506931275,3.5621296966002083,2.0018871831817555,-0.5886008532372582,0.3930672035305163,4.416276781984408,0.33652187944872547,0.959373414390339,2.6817244425488878,3.9036807843345134,1.835249810644093,-0.6621164937482558,6.743778577674226
0.09438646419991037,-0.5057224274360332,0.6105275746786158,-1.8427677070560342,-1.048959904177588,1.8778709599720784,1.983233084502122,1.425220972918919,1.772534469801631,0.08773639196282423,3.9020554820421314,-0.7691796510044873,-0.20563036126223966,0.7384764390058188
-0.7948866377517502,2.5223689377310246,-0.5520157936908192,0.8487499772230097,0.17286186875237053,1.4671204492506538,-2.5468637667239307,-0.7321416750465811,-3.5476235088838948,3.7746450156780993,0.700454144769873,-4.061296138553717,1.4383644380699325,-2.5800580640472326
-2.36922973228113,0.707176367585105,-0.03057195611488428,-3.5990020397143496,-2.0467946875118703,-1.0601447716421097,-0.9283251383497324,-1.9674774408766311,0.23170821055849355,-1.7359953066252367,-3.3937901011007217,-3.4865510166994724,0.09924779996504274,-0.6530393839547601
-5.255687883072252,-1.5811365198000757,-6.458230054472466,-5.924073107127493,-4.123405013646521,-3.7010387191106147,2.826963701063442,-1.4345958001960413,-3.168167605431848,-6.279800656156847,-5.369972749449628,-4.3583741491618815,-3.4555791306392396,-7.097921081498354
-6.370798967373069,-8.104945406682047,-7.315348232729117,-8.769470846196755,-9.820011866764922,-9.926476319999725,-1.9097318976107402,-6.3702226856457065,-6.87431149805303,-11.170810766984298,-6.993656830273955,-7.648118818770493,-3.2611140900911013,-5.463118128032054
-11.313610430125806,-8.935940600777815,-11.001096525572352,-9.555552789204349,-11.32677697009115,-14.284335815398295,-12.093243631220219,-13.296599352117507,-11.401680632860792,-7.195492187028749,-6.751992478333351,-9.961332406559242,-10.231884071535177,-8.423570455605093
-10.145462661450763,-10.989100795852108,-13.960741170767642,-15.171842087853006,-11.95545497444182,-9.578779318695519,-11.112390171373027,-11.651469477230338,-13.043954097921803,-11.956106921643421,-13.867675170415072,-6.201589678229447,-7.580735602488888,-13.013940829233514
-13.7163017306155,-11.502389131518543,-12.063392583445324,-17.896046337775026,-12.137082680544939,-15.708417040485791,-10.529518291642045,-11.613640482439976,-11.80203201602637,-12.073708798437512,-13.954224397654196,-12.306424385297168,-14.011234614680426,-12.362141834020246
-16.58194316025438,-13.573374480665327,-12.23095003867708,-16.05284149919015,-13.6823372035866,-13.866332932505898,-15.544134815177495,-11.637708030914629,-15.020193861514862,-17.192949482955353,-13.116635822941227,-14.52586989062103,-13.998986526145293,-15.622108264176333
-13.653685469853325,-17.794141849653272,-14.180920567345002,-13.718269468229822,-12.40262995905837,-14.991247381514253,-12.333233482386937,-10.723787594989744,-14.173315759182788,-12.355956748857633,-14.299875256227457,-13.855131179351089,-12.996693021571453,-13.472527881323586
-9.955178136754672,-8.695207324835431,-12.170986126933702,-12.711768420411415,-10.361855255769479,-13.278629555868985,-9.676036575678236,-14.970891988395094,-9.49723509557862,-14.065414376553417,-11.91215029121223,-13.143470424282503,-11.996852654261268,-10.462512430299974
-8.493273529033006,-12.79165180123223,-9.353223064196209,-10.685838243854642,-11.667833594740122,-7.624978469208951,-10.302461262984979,-11.020760663687934,-12.221169641799584,-12.223474939194853,-10.359978168192388,-9.971710336721587,-11.62539266525301,-12.750096451101182
-9.46676520115389,-7.555918111418956,-10.358596733487946,-10.821608210832986,-6.826220945411525,-9.30853238204885,-10.868714974925584,-9.139706459874533,-9.018795875752431,-7.048744259134906,-6.5880718437169286,-13.059821158382249,-10.116902472466428,-9.982905735881259
-6.519294708265245,-5.372389662890042,-9.518807394952974,-8.966365630820928,-5.7891434169893925,-5.734962851783207,-7.514711067270983,-9.296420588186539,-5.507857653957382,-7.391517091093584,-8.333990879057598,-7.448698251293136,-10.566671220000483,-5.171457439246321
-6.45569406200354,-4.004264080723419,-4.05812811064714,-4.374775632078742,-2.6004613749544236,-4.472529217987602,-3.2550829560194003,-2.2010586837858193,-6.62957892077443,-4.007701006063032,-3.6639138081167473,-2.758686799249814,-5.2249255582166345,-2.6567445404979373
0.41222686965911803,-3.661299109370891,-5.724159932946634,0.8138513933953253,0.5597647247321853,-3.3820454977294334,-3.6803998380592104,-2.3363241772250105,-2.156834700824243,-0.6485856124485372,0.14199371434788333,-1.4879283986930405,-0.7505644339564828,-1.2039683478227339
-1.2559062595243669,-1.1564240923802687,-0.9254319028271765,0.5838279810000567,0.29327057594453243,1.9189723548943065,-1.9646872644816868,1.767871776865178,3.078367337695108,0.1304323297672076,-2.0301205305682326,-0.9207142566214219,-2.744765867398008,2.6467565611881496
4.593039406136989,0.015973750102595385,0.7221125931439916,3.516239271231319,0.6314686504486291,3.171903669085239,-2.0997550220283174,-1.7952789982404953,1.1757799877963344,4.542860826841989,-0.5179426539957452,3.2097989146620605,1.9378542904050622,6.910105397589204
7.039535876986736,5.612255364216108,2.9209487720176344,5.019209187360371,4.317994640211184,5.2928250207810805,3.408281464860771,5.172944004347077,4.320861774127426,2.0839514965627295,3.03569165787889,4.983913411465289,3.6205308379761028,2.4678869852286933
4.84786396575283,6.478593807892461,6.214401049995742,5.6557426983441985,7.100691412039341,10.456694528215701,3.1474246444637104,5.5270774468104635,8.346014009373876,4.964731528485237,8.047951382419111,6.040837469589839,8.114381439189486,7.245803942542965
9.707852525057802,10.566713247597558,10.419408565619321,11.015515166030438,7.999229134892245,9.646986473956513,10.728943520156655,8.658291051936997,11.731614512206793,7.938887486590816,7.645672691114095,7.908944404574753,8.10865566965404,11.102207409384198
14.300756615663913,10.673109596577008,13.581475610875314,12.96760996896752,13.860391151304976,9.862780823511764,9.175495542862654,13.09198309565036,11.914356694184018,12.268813098876294,11.601908888697734,10.655760787545551,10.821536712235687,8.994501523763102
14.76340849883828,13.184460696022215,13.766782545010201,15.694824459280705,14.671970687779677,14.678890464122478,9.712187930120034,16.081011556083414,15.584472249907979,17.06873735390418,13.492156776553387,15.346225029876583,13.202865641707714,12.797634456950666
14.662071944921541,16.855250123242023,14.855877888650182,14.803314194920114,15.18940172005382,17.98416147487397,15.211428876469183,19.586889574015448,13.971020153630004,15.810544574009008,16.60928572166619,16.27395424724301,17.782600916058154,17.753798778932286
18.340040499135437,18.02004486085065,19.134973426336963,16.24445173669263,16.20470520819212,15.19089232104223,22.594551188092716,16.847445814888232,19.110123172594072,19.826707332651168,17.07069943014786,17.503570162816626,16.60790118796059,18.357172049550563
19.480463838931485,17.33876533652103,20.75864197898558,19.939879983829307,19.914957277497216,16.932714889246782,25.95592212588193,19.20824879099529,24.05168126417353,17.306606742342897,18.79242875335751,16.925835469633608,16.35606604269663,18.830075547948933
21.92171814944072,19.40239369458054,19.474667800401168,16.994013386000805,21.09026772211277,16.70556375595549,21.90127196679607,19.396542792657776,17.977775825346953,22.31895558571332,20.469287799011244,17.689458369743992,17.65076994788471,20.65963616272762
23.511204278487263,15.735547849824837,18.42983766226817,16.871093664084107,22.00328749724415,20.330088657975214,20.268052463146613,20.71117328815458,21.936731828955825,19.254358065708626,14.160015204678373,22.10300670904562,17.505599355980387,18.855943283947326
16.08133776921097,17.862946503120796,17.524785520561895,15.998323097430276,14.736434040848263,17.921030589752505,17.053691694919536,18.193887250916795,15.065969979113984,13.142572025119494,17.27685647976226,18.114757499066155,18.373615964782637,18.618685559753626
10.690667538000907,17.74418699917925,13.82325204330067,11.786229777380402,14.032230043639661,10.241258839932563,13.555103826868118,9.316039365218668,12.869701220486744,13.414825834510587,13.956186165893872,11.282678025478788,11.337778652621864,13.911711060904459
9.773034015807749,8.112981148022698,7.94809416287875,8.313661306031634,8.259096009713627,10.943556582459273,10.347310476598553,9.380034991605113,8.716701537760505,14.25221716713093,11.957782411267113,4.410975309176135,9.242221532201686,9.269166501042806
7.425256112909228,4.235898746851745,2.226774839020781,4.232941887044776,6.193479237160364,0.21083530451661314,2.305829825431791,7.671882531832653,5.244514378431465,4.785211536233522,2.11895154627804,6.552383227827028,7.795065905654064,11.290797850511744
1.318865076246205,2.3119631781656786,1.9829696290809908,1.7492071370426516,-0.6558298272155465,0.8287559661118002,-4.816545582661551,-1.7692787395956167,2.2185907324693357,2.2314533176637292,-1.5407055933452685,-0.8355148751879664,-1.0382555378477385,4.670287328591915
-2.0439264727124073,-4.44178188145478,-2.82175015241254,-0.2915021218028948,-1.5399846734400862,-5.970251951783176,-6.043670326555008,-3.527288165894616,-2.671953049933497,-4.220015674400375,-1.9407426822788263,-3.2458416964228323,-5.717876097709562,-7.165182367220645
-5.283905331874092,-3.343379658873543,-3.4819298244286543,-6.273347013531568,-6.452566488284267,-4.812196357349487,-9.369776230143156,-8.723025586312113,-6.082571563002854,-9.76070301617804,-5.351195521460689,-8.096638849184895,-6.800458603972381,-6.3406847568670806
-7.638021896865375,-8.650223424216206,-12.52597421356892,-8.063219776387538,-9.667404032835822,-10.481711742508361,-10.95946848478843,-10.34295062374985,-12.694155691995245,-9.429059511720066,-14.277287546400325,-12.169030837980825,-8.897814302120244,-11.689708630500803
-13.637048129847098,-9.737504670745945,-15.529660619051164,-13.078460374456204,-12.463000204987521,-16.019817788263282,-15.890175304272468,-12.778645001325106,-11.331865219058168,-14.886500433570028,-16.573714417024156,-14.123942949256369,-11.83970996702027,-15.452792711024415
-12.425402677179026,-15.19045696450487,-14.091947938413119,-13.325239384670327,-16.251289006838096,-15.204873928048682,-18.932680340046897,-12.181633491556735,-14.452441715508513,-14.256330824328478,-13.918104178114605,-12.69584777882777,-17.08404377765986,-16.348129456021088
-18.6848507697023,-13.764219033244924,-19.57089231065268,-18.826721807379112,-18.32607110704277,-15.974468363004213,-17.661105489020734,-15.904758950592056,-18.120314689052766,-15.364162659871155,-18.496732824320546,-19.599856623304145,-14.608409652287882,-16.55503682023042
-16.115988258113703,-16.599791187726968,-20.222506116788804,-16.71061896734247,-18.036009428093905,-15.509846908012422,-19.4584345014778,-20.104052982090153,-14.793555394509507,-16.4210885614388,-19.674389226912723,-18.29153324389013,-19.5296816415113,-21.577217761663714
-19.470350283612117,-20.82059405694673,-18.005710006844833,-18.84966208353704,-22.336505779797275,-20.411398242877336,-13.178463995292098,-19.28589286046539,-17.87887435184648,-17.239878896105285,-14.547033042522042,-18.891818610213786,-20.164516248920844,-20.339218022571835
-21.11761960424015,-18.574063193980873,-21.06595505494075,-24.571854417131725,-17.875500150872924,-21.451952706765802,-18.976921990297495,-22.32036482780489,-18.669130447210094,-19.812888348203558,-19.92523987682129,-20.14895090514607,-19.59390233646425,-20.14270485217774
-25.445421467682813,-22.773520995165427,-24.271594544594265,-23.32857418789813,-23.805096901930415,-20.58360191201096,-22.830677709799872,-18.517157350440154,-20.13870741229251,-20.904778587832073,-19.191203440124944,-20.482704208650983,-20.15135754955166,-19.765004496335745
-18.609279647009352,-15.685596167352905,-16.073328575094035,-20.7820499135366,-22.89883406677114,-17.290496996995977,-19.69819298729564,-20.390898491532425,-22.074806957515843,-19.294102037695495,-22.512247060645088,-19.503807903364777,-18.38494656065222,-17.75234212995374
-16.507039173396,-17.64534943043655,-19.00539351501291,-21.988446448812997,-21.5996286753916,-21.063771059779057,-16.08464013583327,-20.615407616674652,-17.811679894958196,-18.89056594364323,-16.280462934298967,-21.13500524254275,-17.33081291345104,-17.393385481076432
-11.07579360987322,-17.24960364207438,-16.370648088080728,-17.536232520480784,-17.761440735490442,-17.713567929559733,-13.281431588805066,-15.536331995293232,-19.11592834653505,-13.414410269622907,-14.133714886358872,-16.030387197151217,-18.281597446860715,-18.204139628676458
-12.313511236694653,-12.957516694128518,-15.25011363654036,-13.727417499745439,-10.903210261764826,-13.628182371422612,-15.644947794005866,-12.739388933573633,-12.114823785863935,-13.858011878547703,-14.73209151408997,-14.702868369166131,-13.50686584617595,-15.676484392394421
-6.381290259433986,-10.52179085315892,-10.316279112608646,-6.222591936900785,-7.303122178643189,-7.039978922304794,-13.522073048030045,-9.757785878999258,-5.814351844093486,-9.892362739478466,-11.18358113875374,-10.568993538252675,-6.953728652630847,-9.672864517325815
-8.730286266006438,-4.702230868969966,-5.38891987201855,-5.079070049977919,-5.697757075145011,-3.5725888496809324,-4.70951818190136,-3.704667850155964,-5.3584732119001295,-4.908435473505796,-2.8361364951014423,-3.297927027648041,0.615911525603372,-4.0930955041994075
-0.4180889943233954,2.5747051548308244,-0.01063232733132935,-0.3415509080451482,1.158081171830881,-0.9742233598411847,2.213549518213629,2.6944506894191638,-0.10047661840603439,-1.7765433149709056,0.32349335699511816,-0.39308273495280477,2.6912889125881243,-1.7343171746451325
4.412527741275737,2.5165887221838985,7.386385218020325,6.936231255488169,6.61432817053194,6.418509190785027,6.929817556827076,6.996268978730825,7.135921814691675,3.525164250975544,4.150375815070859,10.470735608839005,4.898565021878182,8.12703309031029
10.132827770839018,11.049808905221242,11.323504994536231,11.898783785191124,10.916637748380245,10.707889256611875,13.708760768152606,11.409907603209744,8.983864935740913,12.006305070387416,10.005233006420992,12.736445497400316,13.232252726192073,8.182522925310842
16.09130633671122,19.487043088895987,16.418432030384142,13.15098248480643,15.282608510424835,15.111325359700071,14.186632838283323,14.276325747141295,15.186167476626796,11.920102669690674,13.787887795228121,13.422492503925161,14.389202598273208,14.319998363832571
20.34333238897031,11.50775175126973,19.178042252793137,15.500743930460425,22.231183498408683,15.066827338634805,15.673082433331583,15.339504143907005,19.16638180599392,18.04680032162448,15.557238724373383,19.368760584247035,16.570940571242556,16.17868386215566
24.11848116576879,20.892493822713426,19.879269625424257,17.70189549978104,23.495660553618162,18.283453778227738,18.93517358346321,20.198931467832118,20.775389692025023,17.877380898005104,19.207330443559783,14.336575364222345,19.358981637553416,20.290820851215887
22.716627661326726,26.114419448069405,22.084226460425754,26.898938326712564,18.340143672680146,24.359817133845368,23.151222923775347,20.859765343992116,20.46151568010395,18.163078160304096,25.082480059101222,21.065903002154677,20.344274802621296,21.37102154915419
16.925588435955728,20.402721534083735,21.379227473496883,19.619721982789603,21.074479895119904,19.828199917966938,18.314251689007378,19.773488098184224,19.67586897749387,22.07207778505929,21.324777908554434,21.590650218417217,24.19819683384854,22.40245301777927
17.878299972835485,19.781961856544346,20.45167220260182,17.72561081686229,18.52992774063243,20.029172510661017,17.560957633376507,19.081303930892492,19.893529980853103,17.148287151881284,18.489217015492795,21.772039691797836,18.800340421726307,20.81403284917507
19.857108806252015,20.184892376529476,19.32980053363501,19.38460574297632,17.864043955766437,17.753996936500727,18.9239634885405,16.938691245320314,17.957030496654497,21.258622837030533,21.79196809387185,18.17993639774843,18.88057866541267,16.66432678093923
18.808460887696043,20.574824701229776,14.584068305802681,17.86390426550093,19.87523713694089,21.564942611927837,21.834808205739435,18.04576716496291,15.960929011247554,14.427931096674964,14.01952127963714,17.39480169084482,16.44640315409641,18.80011407153692
14.711643196183571,11.487985580119084,14.05139383721005,14.40664814076794,16.421817471171366,12.912305977607929,14.537083278832853,15.69785227434942,15.70002636540164,13.754217868878726,17.870450057397864,17.128131823125127,15.0064717602024,14.215662660968876
14.256887670279639,14.568293816737237,13.19502800132132,16.82804192759658,13.63078768805499,11.44773589179169,12.78562405838817,13.265032935565655,10.950111908668193,14.10484985928689,18.070449685733305,11.481761705305217,14.969934196889849,13.891656971816042
10.882575160876504,9.941900450408882,12.727125221029418,13.673025908507855,10.313111352387407,13.690163072417054,10.170741022886462,10.772296851275012,13.12347833588313,10.556152958213955,8.666017858818394,7.885461771101819,11.71020858621729,11.180313791906523
9.55236510213046,6.6261667634228285,5.425392750274716,6.582647004530765,9.976137307503974,4.185534695358386,7.098967537315975,9.555480395538968,8.709819604677232,7.696996871799801,7.83411797387771,7.281870665855262,12.518067946848397,5.182797579037887
5.210086896727147,6.85783691201987,3.585886729188959,3.7144395615221057,5.38478560519623,5.573697648806186,5.549178794608495,4.817584924751117,8.693555608946102,2.9617340586344376,7.565719702626858,6.090436545773807,3.9695378345984245,8.499787505923804
4.753484567929952,1.9669914682723866,5.012433939801296,0.7476692037083956,1.9822631669188653,1.032723161654724,5.035813841282055,-1.1056954310247278,-0.5893398509308243,-0.13991871316195592,-0.9837524400632698,0.6409207067396288,2.7980870486595766,1.8180857852975603
-2.509980634819234,-1.7089066809360673,0.05987302290312835,-3.9591367949305383,-3.1238200566231877,0.8142317737611338,-3.7982234892329174,-2.329025009847785,-4.912547472808336,1.1103581845527195,-1.8247807756294652,0.40957233976488316,-1.479476759831865,-4.089815422057064
-6.225450045930862,-10.534470957443087,-5.011586512175985,-4.811263742014886,-5.08165611105629,-2.573618152588857,-5.516027616428285,-10.43766314468717,-11.595647348922338,-8.796040922926412,-6.910368662780097,-6.215160542073953,-6.051477277827988,-6.233587740548634
-8.092810119710656,-9.183142580412799,-9.404601788377667,-8.810513094344,-11.866528704387191,-11.217587588814059,-8.741490506959193,-9.410552200952576,-9.972005766564319,-10.620990160919852,-7.482641139169056,-10.843060645639744,-7.6604412850707755,-10.960676484823162
-14.697252263895715,-12.709445175328941,-14.59093824747882,-13.41603640164923,-15.919004464826102,-17.139903041744418,-13.109735195690565,-15.923018378382212,-16.69874725724666,-16.77103884544268,-13.98420254151685,-8.026693392363278,-13.531394904637914,-12.205387519072515
-16.01219359568834,-21.900793349663303,-15.160093126001748,-18.339188726179884,-18.562472345560952,-15.946213614304478,-18.981061633545632,-15.684070055152533,-19.999481280093768,-20.362425370976517,-12.64266532740578,-18.959387442992302,-21.449116163896804,-16.816049208086035
-22.816767751253703,-20.63389367282765,-22.755146901296282,-20.238742171945418,-21.261713284836016,-20.647340494123156,-20.119889844345433,-19.090184395973385,-21.000061780450714,-16.941938788843196,-16.40601299419196,-20.8265403089904,-20.920354396196913,-19.09963971751792
-18.776734584360064,-18.475873402992967,-20.889776058070392,-16.950132360144572,-20.522356360859472,-19.315159409498868,-23.26832172123402,-19.795723908768505,-17.195875581140037,-21.231330265485592,-23.333247621289477,-19.847386803494327,-19.805198087678576,-22.35951485391846
-20.91359794793062,-20.03832328704287,-19.878250224165726,-21.75121899748803,-21.595844087719264,-26.941105540470705,-17.7245657316287,-20.033422963393114,-22.071828715349284,-20.865270179720678,-18.574130430948983,-19.856888822714033,-20.45518215359567,-17.310550053038742
-19.776412113111483,-15.224118060886445,-18.046286260257585,-17.38564260195663,-14.89145756437973,-19.880809188307342,-17.246747497393663,-17.372616806010008,-18.845153211657074,-13.499153134133397,-16.992742829321063,-17.234394858312662,-15.909728421746262,-22.12883847701336
-16.67218110681014,-22.68727096784135,-13.490251422553188,-13.513705355524642,-16.1974567572545,-13.93153268039237,-13.368049605316578,-14.663116538101193,-18.38086817652757,-18.075414347835803,-17.77223339832077,-16.584210521011773,-16.17917091332326,-16.403973846027057
-10.421637445517808,-16.096578430168385,-11.721579762068112,-11.340872914513794,-13.534792597413196,-13.942693699707219,-10.90614868047815,-12.077775842521447,-8.045715927973749,-13.371309581873653,-15.017452397227391,-14.585398539982808,-11.02404944302677,-15.227802795664932
-13.32856222682203,-4.5352810683958085,-11.391710475437392,-10.590483080876899,-12.988161120552078,-10.83082059342704,-13.194031475972666,-9.609387900513521,-7.841966644498695,-10.454662978115968,-11.094301264295087,-6.650919667593749,-8.507946184407505,-8.797702148495151
-7.244221183868765,-5.755236905430902,-7.453267094639994,-8.69388577705428,-7.341733696874303,-8.232546574183296,-7.135971460365105,-10.216528623574728,-9.236282965855628,-3.135937946451002,-4.790963337287012,-6.430397971681137,-5.06072992661356,-9.022309024235954
-7.024686240309189,-3.6756968685588394,-5.018614970296465,-3.606066268665787,-5.611478356449346,-7.10174639726103,-7.539100732462099,-6.079349645345138,-6.8162483029501955,-10.64231624719913,-4.121695886502108,-4.606189482105971,-9.005631777277635,-4.058738714873442
-1.6702935495817517,-1.6804787147127016,-0.2067332124434671,-2.3266224835332596,-5.043869710352699,-3.9804689379088245,-4.697463941126256,0.11739415724128799,-4.518237946471056,-4.625692688658816,-1.5287617945902066,-1.0984406730261302,-4.043810360119441,-1.4424262290602625
1.1053834128274058,-1.5049896248973114,-1.1542077761070861,0.7067394226548056,-0.40823127149805283,-0.6214969371751123,-2.0846911574082494,3.9086801595002694,-0.5082671645474148,-4.150495078266614,-1.0633404859079907,-2.2566776822146197,-1.717603683417218,-0.23348142095444013
-4.624034773893127,0.2929600616176101,0.576804591777184,1.0177204682021603,3.0656278196352944,3.6451106654601952,0.026405320538294808,1.8763445236051184,0.4481340528617471,4.861535385697847,0.8036372171341922,0.6152025377333125,2.670070879254248,-1.4734114089947834
3.5365009772103493,0.32152051417436445,-1.4659206320423008,0.10711505453239667,8.392591648547596,2.483819562712763,3.3029565508586853,0.871167342462289,3.305902228517877,4.916290160648533,2.794658957123582,1.933368216549185,3.2974130665622203,0.8667085713046512
1.3809069435792733,7.841590255116086,6.0536121529549565,6.20166815086071,0.3288678453442673,3.5955079137040897,6.002955869800402,2.227331040953613,4.8629342600347325,4.267548471952099,4.535153835906307,4.175493681195359,-0.09505356353875705,7.012784865038531
6.487465837961945,8.518337515863438,5.16476010883713,4.865562207428689,7.135683357895224,9.480413664372495,7.0950687764830445,8.256274800389303,4.555400378580366,8.940668064051046,8.044500170441143,8.295590663975592,8.371127065070004,8.064695723748349
10.196871564355408,9.743066175714635,9.32063685784692,11.001371101445761,12.771148265570751,7.606595684020004,8.873168758798474,9.371240638631196,10.303780638529062,7.233355206125674,12.232656987344532,12.168532744972513,8.074096649228487,11.492245536524015
10.576975562809283,8.121556586817672,14.335495185425096,10.250710581479876,13.009610970497615,12.62496893974013,9.95414461219701,9.764885999274396,11.034770092456279,10.89608479901416,11.118600202468992,12.541634789886034,11.884543345225266,9.55041295432781
11.826634978268212,9.911561417415959,14.157534511098115,14.086465439090365,12.731285295925307,12.956260958639701,9.368240186686972,13.421314037043448,12.923264921810977,12.307129225225593,14.45377105641898,14.024604113643239,14.016517005157922,8.316427687617246
14.373107054687607,13.663431193599742,13.806422746477462,13.013369050734687,16.081901448405468,13.362606638718562,14.289464752163331,14.928051368694247,15.99658340626804,13.66894456588029,15.16294542014471,12.23216877751372,17.02736081425405,11.09664802428158
9.04436843354474,10.508552872442621,9.076404135114547,13.07406138384491,16.301271443207817,16.40165697595338,13.19909404170878,13.166151750136237,15.600121587604622,18.25557855842868,12.334047539689745,11.692611230799756,17.229306388780202,11.00058291007282
13.917259878334045,13.732319491382276,14.437951039272852,13.811056095533797,13.908805008337799,10.651469479929801,11.392834338843167,12.813284684020235,12.071687390933615,11.267952606020405,12.08482673975197,11.838438869770282,12.455576498230144,15.59862761212802
10.233059250161215,8.98422338193584,10.53681436036652,12.981516893443356,10.514954638808659,12.514686094796556,11.875104103951411,7.126833234357112,11.429087725661642,8.714205438067507,11.14792755429231,9.607727240876658,11.395513012809875,11.2823615281625
8.518149294611945,12.325986623062473,6.382545793060789,6.311760887605943,7.831614577806054,7.682069760863187,9.073404996396425,7.993643175538278,5.912250414519539,10.237069798730282,7.074822159396513,7.937322342252647,11.124549858717607,3.2400597828723328
5.192754858899836,6.573370676480681,5.925289820053187,3.661076424989747,4.537512170332747,7.3373938077048395,5.59974132527803,4.319685431212535,3.5990495715482815,3.8900041465107313,3.055925383158627,3.0978291449015756,5.219352796113291,2.858744300659908
6.785655585398134,3.8320393707490834,6.61080491842473,1.1005901262539308,4.632985515038188,3.396078764489545,5.981781641950907,3.8336478335244393,6.521642901594358,2.6808873807851725,-1.0259815481481906,5.154845961426398,1.2001305987844968,-0.1551876260300311
1.187164583852523,0.6564220132520144,-0.3190630353455477,2.3931390636932504,3.064776044410928,3.372167135644067,-3.21653391836419,4.4421011845342395,1.8772496229464495,2.4218539285712457,-0.9774713397058958,-0.7436043440168429,3.5760195097730265,-0.40705152198639283
-3.406800762281512,-1.339118471871827,1.7210608525765065,0.9775147987508872,-0.6064386873363529,2.697563521083909,1.2184917765938255,-0.2990497662861156,-1.0714489072288682,1.0300425795003074,-3.3053025180075934,-4.166607239002286,-1.7772980010105541,-0.5516179700492126
-1.7230932436344664,2.2146150665565356,-1.0085727728062444,-1.5127039350249611,0.28582148036293153,-2.688542197716719,1.2704576206804283,-0.1492958405039535,-4.131778805361727,-1.5380353048681072,-3.517537260994578,0.11365286408120578,-4.470250777618195,-1.383511140202418
0.016754371122357448,-2.024351150530021,0.8882449028116031,-0.7190668648420173,-0.7064232083888966,-1.058315326370744,-1.8094177632524073,0.33610928742799784,-1.3059238409018128,-0.30254303812426153,0.8735070786205967,-4.133422814521752,-7.850327268078999,-0.6487459835732328
-3.1185854879212687,-1.7129073549028897,0.8906233678720423,-0.9506990880979544,-1.9467888384859684,-2.765666024442247,-5.563106975132959,-6.956620908116526,-5.47805257019248,-1.6817020677099834,-2.9069558052721223,-4.425031788634298,-0.4939965632532637,-3.6476522842717163
-5.070359714546604,-3.701168302298483,-2.8759523708349293,-3.146973016770377,-1.991527110566856,-3.489119206855891,-5.039955260326895,-2.684162391885757,-5.308000888410032,-3.257565294319422,-3.3632014232461462,-1.6592986968120091,-3.6216484441471355,-2.3470886081727733
-0.5656386201221246,-1.4256900441249898,-4.736439236745879,-0.9915066425056542,-2.8672569139567843,-0.5087320911416682,-4.267460070605402,-6.054245304969436,-2.3980543157758554,-4.102422072818892,-1.4222091088790143,0.20029378549192778,0.08994284601635316,-6.741480327543797
-2.021216139295732,-4.426183004089479,-0.30734485646753495,-4.884601324803265,-4.644653412341089,-2.089142519577398,-0.40610841993937496,-3.736142276209864,-3.9153188647302546,-3.8588596979308525,-3.7298967854233913,-1.484334780626328,-1.8272506769367807,-5.321045689227571
-0.9360741158368453,-0.5280521499421564,1.3378834918442601,-5.20856941015129,-4.288924560651152,-0.10661487191415686,0.5099858353622868,-0.71983384526414,-2.0410774291765494,-3.7486375390438496,-4.7448071891291,-3.0574999637051876,-4.406647584714015,-2.581406906886808
-4.943508066102335,-3.291159488254968,-2.3959686975702557,-4.01134824145653,-2.6510691392254357,1.1351871434658722,-4.484063771658444,-0.8428650310534671,-4.773956218079895,-0.6623081512859441,-3.3694420362520976,-3.3098056306234707,-5.143366830425322,-4.909543804832657
-2.5986214665774705,-6.986196512040924,-4.223806546301377,-1.9704943135085442,-1.0929591857324805,-2.4231045561927895,-1.4781518789534585,2.146971433592585,-5.324540820210336,-2.545444048159391,-5.9485647327394515,-4.397341594840619,-5.578576667731912,-1.8690106283337449
-0.4968200596878636,-5.195533917988282,-6.506516590612048,-2.7146683307936454,-3.4561645271670374,-2.025914382138889,-2.040713781097127,-1.7087185355526247,-3.679324127196509,-3.9763501704160813,-1.8223362450737999,-2.295754905751866,-5.239494716016495,-7.4137717147720235
-6.120970850797795,-6.483992563065625,-0.7530239643761636,-4.8591516944767665,-2.7283359774201155,-5.951644218730096,-7.145104206559717,-5.610945623122024,-3.8861907415019465,-3.3136513954171356,-5.242508173944396,-3.6185781349294057,-4.522558802673189,-6.954028225238202
-2.7480477008758477,-6.732864848576793,-6.071979933408346,-2.0063247015653642,-5.095841132900886,-4.096390624659163,-4.817241198138141,-6.9450024532403045,-1.7581772240424138,-7.1221044556992235,-7.84391351812765,-6.968991227799709,-1.4154038101167021,-4.563216722319815
-5.488647737862581,-4.891229253734424,-3.128456531118711,-2.466489184999354,-4.267411244325819,-1.289209572858847,-4.177948512722158,-4.325900571072657,-4.750434413203719,-3.572335081517415,-2.5669673978716805,-4.59969912911128,-1.917141907317656,-4.242138665972622
-4.723525218349137,-2.5284713411675,-2.9526225309098932,-5.019050061853502,-2.8700599109621994,-6.356802936114507,-2.3620430597125273,-3.877386815035644,-6.092977699104608,-2.4541170812114395,-2.9750207460747657,-4.3258611558107365,-4.420239446695916,-5.1882805174790185
-1.7729905683963407,-3.943967068585753,-0.3957105400666632,-7.378428617396228,-3.3108180349804144,-0.6874583576772815,-1.983117650804501,-1.9741085503532405,-3.4122731489489055,-4.708892677278126,-0.6333394317083534,-3.1548292112186584,-5.174767448937572,2.213339373608803
-2.3939915983346403,-2.825930844422654,-2.1590542214526574,0.7395470075047126,-2.702449489061611,-1.5164596804311632,0.6283561055865732,-0.14687214422459505,-2.159389333334384,-0.46226950657079247,-3.8515698837301935,-4.544824522260993,-2.795258815416206,-3.686788031843517
-1.6447824379087748,0.013029886521874756,-0.5117444746978527,3.2195009368736924,-2.3206951235360203,-1.8543873329923954,3.600063933192441,-1.203170138777038,-1.9793163886506906,-5.489878170577873,-2.355089265380789,2.9879568730832347,-0.8063971406932906,3.9369172103720373
-0.3651463206158465,-2.478178543893872,-2.744302382519689,0.17353247099439373,0.6599572318784199,0.023106641405110206,-3.3337006637184876,-0.8502914216306473,-3.532846226788722,-0.6661449517225855,-0.4519961642354056,0.11823521702559825,-0.015812176550280443,0.34723894948892575
-4.5026880089248795,0.21590219648197495,0.8046157743499878,2.276764180826335,-1.4919830552402433,0.28033938221936117,-1.1488669553122222,0.36623495259075756,-1.005487457028261,-1.2272083932411528,0.20811913752543143,2.3287490256774714,0.5451618277460801,-0.6591336256862611
2.9479895369495077,-0.23671644092222865,-2.4590849866562015,-1.7132980398545836,0.08906144855937281,-2.80274361426879,1.3019754587998593,-2.4075559330441063,-1.2141423868675316,-5.017646764660078,0.10907893849387262,-1.0038519610271028,-1.771028483419569,-1.400429955378681
-2.617342614073852,-2.19121486013366,0.9535228768114954,-5.3210058252857095,-5.216541017428656,-5.808249726713144,1.1940069813592231,-2.123600877178042,-4.745931036587951,-0.24340962804762212,-1.4735884547599944,-3.529982712044224,-4.026224728938674,-0.35261616976618626
-0.440448189889886,-2.7447420154360924,-2.4829072564342294,-3.6363364797607676,-2.683511224338406,-1.345674503250005,-4.5506912665686485,-6.021223965085307,-3.3153625912603117,-3.676614059493985,-2.5391582032938658,-6.129105801750843,-5.070529576312075,-2.0529500924029165
-3.7368204506475884,-5.3522268438123906,-7.076340459154414,-7.629352390662505,-5.552642271644042,-2.862530676007207,-2.5174055364459944,-6.210780684313365,-4.543503758749662,-9.466322235359694,-2.580154329712328,-3.5772928200644003,-6.919508351396249,-1.61459621890062
-5.059965710847388,-7.945965704211879,-7.372155617952662,-4.551478698316211,-6.04733474112724,-6.247168487976759,-6.1695402419784475,-8.548718182476819,-5.668587086171315,-6.494617250277666,-7.3544780484086765,-4.698485164822708,-6.504546527808201,-7.757698432335483
-7.7448554989386285,-9.760813656032237,-6.371214008308625,-8.730901793899335,-6.780799875661126,-7.043319996009006,-4.029416292732489,-5.37497411962638,-7.11553377834246,-7.42750266562905,-8.19958453396555,-4.987452519738236,-5.58011520293163,-3.1325456059111647
-4.802781786561457,-3.100653475359713,-6.548678778639795,-6.949134927846117,-8.855891345117845,-7.511061756634056,-6.143650270830181,-6.056534891766567,-3.59803709750265,-3.6302640242219004,-4.4385581884603695,-4.6147531597288545,-10.59055767913037,-6.206505591879415
-5.754054081470229,-4.416316894220667,-1.77913434745725,-5.650368349010136,-5.349147100302037,-5.449098067048758,-3.7509721774725895,-5.505717132682872,-5.530130706609265,-3.8567684357468304,-9.7937912322028,-6.366005615829426,-7.157340843463271,-1.4826510967376731
-4.435582461795596,-9.065350785084563,-5.610441996501601,-7.210917831852434,-2.475979649489652,0.5639635600625978,-3.7561575936841516,-5.662285828221519,-4.4239113885040044,-4.796649255762438,-2.6039509464048383,-5.989199009266732,-4.659289803738318,-2.3202895849108582
-0.35068976645907357,-0.8209601242947937,2.3977878522310587,-0.28699397941134386,-4.390068771930551,-1.010448458243446,-2.064487100869018,-1.031459052308918,-4.150900000576571,-2.8983715380915447,-1.6581822267081459,-1.1132848612328667,2.508434764816988,-1.1393061442170853
-0.5218664266009956,4.619978237981295,-0.08445831212751154,3.101979746423993,-2.1971084786009443,-0.7600572712125717,1.7830724987004027,0.2977053131969992,0.27335106692404904,-0.5620648506785217,-3.3982300835003763,2.3823573965086244,-2.0641015429854854,0.0011692654642022626
5.024889502049814,2.9121278208502734,2.412692973163768,2.7142543089930324,2.554098403094222,1.3409729960192147,2.875831687021929,1.1751183666595064,6.782761664719732,2.513410290987957,2.7105463739144344,3.19829758100479,2.104522343125373,-0.4932835510455602
7.626448492573293,3.8298439838751364,6.815093838895825,3.9606047228530286,2.611320315920424,11.072957191368541,5.693472434945801,4.817279262798907,3.466146941954179,5.511709625548768,3.1556901650656113,8.099738275364501,2.7415634579437516,5.959616703036238
6.23820733900172,2.066577272389117,4.255128668883022,4.137064491485824,6.362506978694935,4.781478987319835,3.7561409473941976,3.0160514995200307,7.527508459519527,4.4345471817188535,6.350474444629221,3.6853669641859805,5.313533616616268,3.6382476666225987
6.596552554009363,8.421116587849927,7.5260418067114845,7.409165051434426,6.38804447033166,7.597902376054214,6.131474518885289,5.72959381938118,7.834639596643301,4.076317265659931,5.084737990646363,6.666850129159295,6.958223758048913,6.754277363740214
5.486053009911515,5.003060186738898,9.096927562826352,10.069975754479358,5.842006648481821,11.996809467372715,8.155344252835956,5.754230415521388,7.1301324153182515,6.504914207623677,6.841667397320211,5.279951339027212,6.520276120693013,6.934177380389262
8.999073959493717,4.977237483438044,8.509267424391194,9.076781020397913,9.8516106413126,8.931043789973018,9.857636674851495,3.698034458904705,6.750426090757774,7.903548724209138,9.964953042611436,5.659200137899137,6.5433723202861405,9.863224797866621
7.6592700357840275,9.51484647103545,7.091124941180034,7.962879908396356,8.457740750107018,6.2447002013324,11.679670614887511,10.35004870825717,10.949658312429898,7.759469757294862,7.890626912738571,10.476498218458127,9.009470035703345,7.621845365690372
11.970261790149635,15.16918564899876,10.78224421777592,5.849729212237849,9.20534697374902,5.764385893060251,8.193480922926105,9.865618263830699,7.7998583057741095,5.142355742582129,8.265371800274217,7.1187123219459085,7.375324541596493,10.010164623736369
9.225910953469839,7.604473103976778,8.917081917154206,11.727880917868237,12.882724388200032,10.255048485458701,9.929497107512288,6.745770295102165,10.372356993737167,13.559040194795088,9.843009818317702,10.059114578050776,7.2820608194438865,9.310124727710035
15.920122924581959,14.427025540014359,9.278717316783055,9.282760603066217,7.862417811328992,12.047677288979784,13.616527741048627,11.387519140487063,10.533590168043437,11.422070229552212,12.412917247124437,11.201857792906337,14.405382923797049,6.603739313698026
13.44239635914788,10.932491042196546,12.90681451358427,13.035745382647752,10.881587758882755,12.970065745455106,11.068918153754243,12.605677321026088,10.855263210497851,10.512830781717092,11.161181665869876,10.91217657250917,12.015998107427187,11.96039519221926
14.028743890613857,11.991085654135347,12.831961412461288,9.595080270008072,15.246479918146884,8.852965184553042,11.086994120772607,12.51591374972837,12.921697081485,11.416926383991658,11.994993618457576,12.974311572919976,11.841099816492138,11.18204575336763
12.751052435119089,13.773269293101896,14.490639707590532,7.362911375950472,13.584922428456018,17.805483710766026,11.893076700575353,9.500594454004853,12.31919230219961,12.962652209044721,9.110050068945366,10.555544429232564,10.508358362629863,6.836632636707572
7.202047989585436,11.299086152302936,11.797850304759276,14.651292353295819,11.145671118056812,12.738946742709068,12.874287558557238,12.349505520946842,11.95071085109504,7.888070249779066,9.714691255188804,7.356127665178034,11.13713976255762,8.57532784035391
7.823611242602901,8.034289406800387,10.64950914729045,7.062383334618274,10.956911795837716,6.814796447856764,3.2600584470711196,8.748933880389563,9.916850897588875,11.430038287488522,9.47325284977154,9.308365449879483,6.192385856195695,6.820519787847543
7.421503670320051,3.027233337478372,4.755639937239889,0.9744512098460874,5.685634472397239,3.7091971646161905,4.24711706607535,2.6287944001794594,8.353830512066004,6.806279556415815,5.857386497254035,5.322245928765604,4.47971240893224,2.019550919066397
2.5227162477619345,1.296425212167571,1.9089916483306624,2.8133628383484544,1.624706041217674,2.0532718923674245,0.16116574910906012,-4.083607297977879,-0.17121961449339418,4.703620466084677,2.860835520230636,2.1626713853150923,1.6042823358367084,3.600327405782541
-3.9848635030300414,-3.1104369027959664,-4.654288266532889,1.1970419240778112,-4.442765840382019,-2.9109551001134664,-1.7843707222936631,-1.0395987608425368,-6.382667237825229,-3.462892348073955,-3.61571508867871,2.028004961522654,-1.6180308603797875,-3.241739197610816
-8.51826688206588,-6.972742462603046,-7.578137470460892,-6.603692905022609,-3.865894068506488,-9.732501902892995,-5.3889641264119295,-7.093724172591232,-7.824612341767911,-8.510542228620992,-3.8307124702849236,-7.9437452321473305,-3.225840341237898,-3.6499617223768843
-13.14723713841618,-12.722352930486219,-11.89527457359265,-7.546780897924815,-8.913111225243169,-10.227326989750797,-6.146121074908338,-10.998303481073577,-8.914418379658018,-11.151074899274924,-8.412889031559656,-8.383546075420217,-6.358945538915975,-11.676013275416178
-14.357412583274298,-12.111471132857313,-12.87816393335685,-12.797250257764587,-12.652473118977532,-12.484596362170507,-14.76073576780117,-11.219122784098333,-10.102094680470904,-11.894724574440817,-16.686429353202158,-13.272153495524892,-12.21305549576038,-11.359677646689592
-17.83542824867918,-13.287859839144962,-11.881535123081957,-15.84096261433042,-15.68672404173527,-16.534028803679423,-14.735055562810926,-14.022843839158789,-15.705865120139958,-18.154313894900763,-15.848215370359789,-14.42348525091382,-14.756541576640373,-15.449113082047864
-18.24610358347477,-15.827089761559517,-16.81848499161258,-18.122002340178746,-16.65654397920933,-15.659047030422832,-16.94217557247001,-17.611739220705108,-17.273371487491662,-18.179461443138788,-16.04696230092097,-16.013633558501446,-12.558406427159845,-19.21927917257267
-18.976592328702097,-19.05040500668564,-14.51768931707267,-17.920888953279455,-16.59567271202518,-17.358850214942525,-15.829506832678526,-16.6397528143039,-19.343184376714515,-16.660846236879202,-16.783459200513033,-17.609812405826915,-16.244811573048676,-17.309997155506373
-17.269488773992173,-17.601783835522262,-14.675356040295181,-16.05643046761042,-18.779598433940926,-17.127047904806776,-17.501373474009554,-17.84285713806075,-17.40371878470537,-20.303996633438416,-19.699098891325654,-15.857916056659628,-17.01319236771115,-17.867423269571038
-16.50416270396151,-16.80858059106343,-13.564050661793212,-17.494389350631604,-17.776918674855732,-19.17745275582897,-18.192072070231774,-13.522774618203922,-20.910700738199466,-15.753154911989169,-13.19973047332553,-19.643509754703228,-16.760247521510415,-13.935405395997837
-15.505207994803367,-14.00647943881502,-15.060016238411322,-16.865837728297183,-16.328698031708196,-15.776280514050036,-16.472256634356906,-15.831236892685277,-12.982506069904778,-17.2113550433831,-17.706394715533584,-16.130617852229175,-18.196185901669786,-17.74809034976226
-13.849771552820904,-12.310249954913917,-16.514178679641226,-10.919007375030583,-16.344266337936592,-13.094002155980474,-14.01852499085965,-15.71096639809305,-16.307983326959548,-12.203555554732873,-17.053945860027532,-14.117913497645178,-15.826393844779332,-13.738871912773758
-13.426219205639889,-11.856394821420512,-12.412708241669268,-11.302830028944598,-12.933628298559238,-12.441376681559527,-12.421180268415615,-14.647792813803278,-14.483931792002299,-9.324368155988497,-12.100327902740768,-13.62509408138701,-11.795924777425022,-10.52406901495177
-9.684763010611771,-12.475474631317374,-11.823937986800305,-12.76957116596037,-10.365989616946294,-10.424383906422548,-7.877247056671145,-14.009959291538273,-10.661204152890425,-9.20760537633681,-10.931461029371084,-11.54155913006865,-12.648972661696643,-12.004512192863013
-14.293148933386915,-10.494548363781787,-11.063666578981747,-8.956949387199082,-12.987332302204326,-7.71587873843248,-8.402948376788661,-11.802819578306806,-7.479363008118545,-8.952783229610718,-11.783795387489942,-11.24908419596201,-10.408783466225175,-11.296321339792783
-8.577879364371334,-7.203593663350352,-6.691369841119267,-7.4275514092801735,-7.888784862252629,-8.881946088704977,-10.00026025627108,-7.682456474099944,-6.190945028079386,-9.674312688229339,-7.200865165476476,-7.824140157297365,-6.231500108569457,-7.622976756633062
-5.964941623869524,-4.080942088868295,-1.1613861478386251,-3.4105022693277047,-2.1289082608203653,-2.1012773366276427,-7.645151370729159,-3.6451824043718224,-4.809668131618033,-3.4043721382018157,-3.991173771213337,-5.51122120293479,-5.215279317211083,-4.2759037284729144
-2.0588131403931325,-2.061050725982647,-0.29952741671126665,0.3244316014647074,-1.3489440091431246,1.7549307683846693,-1.0395694743308694,0.436546935384284,4.0718036596136455,0.9946289368880405,-2.340839086455034,1.1422200870240302,0.22520020354185033,1.4158001850064448
5.147910715679772,3.339375154723217,1.6093318471220868,2.4749931567184555,5.770022516786858,4.190570498821682,4.575250578098848,0.4395668548716345,6.820847383648139,3.7393657411779926,2.245796206334796,5.377336298939424,0.22570884645805966,6.419475240959136
9.911542732421786,8.846202781741516,11.46462483858509,8.945211755440699,10.038619736414528,8.705766885394619,3.4084389326992426,10.585725122306764,6.539954991152436,9.379749605344557,7.163464972334278,9.08728769413009,8.771878547180112,10.37997179423266
16.392542770108065,15.045809848722921,12.167447526678455,11.442993955657819,14.676538046273716,13.444737652660702,8.568915726124564,12.419459727111647,14.023200416418671,14.828308701235272,16.163274328908646,14.080338534125248,14.758610327576129,15.064066423598451
21.28034699452536,16.918518646238,15.156040820058582,17.209141311859195,19.774788040825307,20.403893500591032,16.92739819442473,18.988344948971072,22.345376930511453,15.539782520254565,16.313492445947716,18.4019369588483,14.545227218529723,18.447066206863862
20.236394346331934,24.82640866980089,20.71101503417324,21.749421063607482,17.29179982573355,24.007557763954033,22.696256947399327,19.493458058867315,23.074483430103193,22.467740223782883,18.57493696759421,19.899776046946826,23.50867025566359,18.64585094024804
22.38709603770195,25.132503154918464,22.487976626241046,19.910500032759266,21.81424929828054,18.20276169768696,21.270683217922937,17.61705119771088,20.321474159001614,22.837466389748883,23.42525177033636,24.068283895010588,20.316559857320982,22.525331397498558
21.097311341798957,24.88132950163039,20.903933545825378,24.759800106028536,24.385057693310348,23.12465894854739,25.324243594789962,23.873530214064143,22.401285071498858,24.210488948043615,22.31420769495491,22.36277566710911,22.99902627446258,20.920893248150357
23.150526950911416,23.36706473214897,22.374343772383945,22.825129149164237,22.74884871933721,21.391300648650954,23.6788456215804,23.867870103985673,22.84324775008012,24.388920078460217,22.979333172424592,24.359889807379208,20.265226752365116,20.58157412959443
18.466222655846334,26.413024280724706,18.53679047581396,20.24601035021118,19.84910805581264,21.141868099974793,22.539927678432157,20.465729253431988,17.717718611640073,25.698506274835953,18.183364899419367,20.755019868029876,19.754533232185963,24.181711835825517
20.160900171661822,17.399208997387298,14.104760215177862,19.94935178631078,16.864603628854454,20.674699154542644,19.55529655098087,17.346372928604957,19.23734245093482,19.149833197467405,19.007432606805942,16.118919263080368,18.23441278608391,17.499291740039368
16.98687544651119,14.492613520687584,13.299968199547422,15.269832700909408,14.698484830026606,13.494454994689413,16.142535095280888,15.15684348036846,14.636945378773863,13.96163629581345,16.759025954525598,19.28612566680465,15.734869575737156,15.715544911407086
14.631289603655045,15.156071412195491,11.228678847656507,10.671636087333164,11.156162508189837,9.666148608242132,10.904421805632603,11.49092809057002,11.215244127300172,13.235883350258018,10.93658931323449,13.534723901634049,9.971978754176899,10.305844536303194
7.251856897895624,6.815877887156531,7.937448537961902,8.589240485599861,6.5862441442839845,6.315578342259544,11.317612563096596,10.827016540024694,7.96317461714595,9.238488274713168,7.841590218603143,5.383530185274134,9.425299474278345,9.076538484673287
2.4060267875253407,8.560821867944341,4.111067175945981,4.73576208628926,4.86466677574818,4.495299999050797,3.522786296012454,7.146514799734362,7.171290529804794,5.391625690860472,6.448640137453782,5.735920834761191,8.030557834396456,7.106375708137456
-1.1176134239718674,3.6657806900255916,3.3264113250603375,0.9915551839433003,3.9234923603508767,3.529857461637244,1.6579771038946363,5.424151250569728,5.17436358202297,5.090521694850894,4.080858663250739,-0.36220953823637103,2.936055774582726,3.0838078328466456
3.5881561047477675,-3.1982995958167035,-1.893684976931151,-0.4779374855521241,-2.449251681036073,-2.0539403954553945,-1.6389331331394954,-2.3507645981002505,-1.7697184920030486,-3.8449960643246874,-2.1203228534062903,-2.955103484266365,-1.1486713562937032,-1.4612013444169003
-3.6264410608028985,-5.865692149108903,-0.886508529331905,-6.241565702911233,-5.688405088744325,-4.36391578148859,-7.275755828510125,-1.4652741262805624,-5.93474966883516,-2.6546052585915225,-1.0815552143604754,-5.31478926983145,-4.222304419989858,-6.387152795477963
-7.880091763604221,-7.854230384713783,-5.7405162660524525,-4.07556925460179,-9.986954275071604,-12.103052043693658,-9.765298239501789,-7.046032448831139,-7.810451343304315,-8.355881963257726,-6.550977905275957,-9.92324661803437,-7.161535657086245,-7.190815425031096
-11.221246203070553,-10.6866999824455,-9.257239107835929,-13.035385132740513,-11.157576977741202,-10.22978112831765,-11.17928705355488,-8.5462161683588,-13.013279824530267,-15.344208342805413,-8.504191298650223,-7.850320794772512,-11.815363020313745,-10.07138887391706
-14.816124595357094,-12.258867205790093,-14.474284725588392,-14.951491658037982,-11.796785013682108,-13.65109065946601,-16.90004177643029,-15.110414379282865,-14.982147395701936,-16.511307801876544,-14.34301878576652,-15.098594736578837,-14.61130670168071,-11.772675825126203
-16.749419880799454,-16.39490215654089,-17.269741176008292,-17.247330857954424,-21.252623664484666,-19.592339403395624,-18.112323494042176,-18.92325376656458,-19.758132854335024,-19.83785661886632,-20.441188948360217,-16.73851181080813,-19.018452500324514,-18.005634963721803
-16.294022328938013,-17.32676063688054,-20.406303896011824,-20.307494218209698,-21.383814665073015,-21.153145992931982,-19.379522253079433,-24.45849285037089,-19.813736849219993,-20.942830424695067,-18.688004311790788,-21.394272610170237,-16.681488190101202,-18.87616394628481
-17.171129804328256,-24.02497609595851,-22.64982929880901,-23.481517039120714,-22.200801502435702,-22.994909700066643,-25.833989279141733,-22.731878099635622,-23.28048285576307,-21.14530608650374,-20.494708190129188,-19.88300800251823,-20.92578763474969,-22.489770647741334
-22.799470678279597,-21.454851594251746,-22.52480387415352,-24.09872904153651,-18.845505639969208,-23.781086828983135,-23.402198140223206,-23.606759297576854,-23.482542256456416,-21.392899736320928,-20.034950665012154,-22.719109113452138,-24.16187141361153,-23.247146428837098
-22.74471485841588,-24.739668018896012,-25.313272958741187,-23.986828192041294,-23.1220503763867,-22.010892799594757,-23.947140685787396,-23.34064578784002,-20.144691052553217,-20.6670434880727,-23.57921850087066,-23.87711818658549,-22.535195632538173,-24.630507777971175
-19.3659801727635,-19.880874612685837,-23.61094995850208,-20.710576879514672,-21.162756785053105,-20.213352382863594,-16.735046681218705,-26.25199958198578,-23.32100574345992,-21.929265532575105,-20.38572163734259,-18.40674676180552,-22.41166235924945,-15.85029836468799
-17.72647443506703,-19.390735708320538,-19.183725850261894,-16.804359700536395,-17.8936604129826,-20.4140792470481,-18.480196693116255,-18.272128523058495,-15.747710691780267,-21.193076445825564,-17.394569109097795,-18.904933644703366,-17.34608029223661,-18.75287553516428
-15.798119781931428,-12.614852925334102,-16.1403096298143,-12.977463739882326,-14.673809221652672,-15.61271472516798,-18.052134163822373,-15.651283266418044,-19.690046790397673,-12.488585430392558,-12.312365955618148,-13.77576488985553,-17.13061865540621,-17.185023353111326
-10.794182044536878,-10.374381568929202,-7.430648788190965,-8.317223997325394,-8.429690855808175,-11.27617639097893,-12.185592893836281,-9.392089515816277,-10.659241669648226,-11.587037774684251,-9.062408172617586,-9.936026258250253,-7.424286113409477,-10.666415995523495
-4.9501849425784314,-7.158056576176537,-4.962636512731919,-3.382481397142421,-4.8643454767921135,-8.797626618839935,-7.920247831896899,-7.146062732413493,-1.7909796755155067,-7.717646123852746,-6.742588204067038,-8.858128703120098,-3.1762618825204063,-3.1251259034963974
0.13867268229576735,-3.62366512934792,-2.8401120970202434,-1.490034747779958,-1.0245489005456445,0.16636705915969552,-0.5966743356350344,-2.5310889298506267,0.9440603451858172,-2.612712673339482,-4.0331713900781745,0.6632633176374667,-2.251479080087575,2.7301423505962323
2.344637278045497,1.049099397422214,3.4614608534554083,0.8556190711074758,2.0692568528499713,2.5027559186116037,2.529403569425918,-0.10932081617538447,6.259594212472287,2.2646035754648777,4.538051308267741,1.4343768673838901,5.463125402294008,0.7075995019270795
5.763274828503419,6.372754444682971,7.042576208908686,8.443187850533741,6.736439324895461,4.365038010876046,5.651220219308453,6.87166864233739,5.24108639873762,4.125131917119906,5.053976073572368,3.766464511594444,5.33612353745892,8.489532521306938
6.735117133739254,8.169646656224124,9.374500160040615,9.059787384890205,3.7569751431414806,9.471032158915296,8.124285495731094,6.362703930150801,8.197807120168068,10.345533937879976,8.697025975918196,7.9102780629313765,8.69159085478035,8.986405344065922
13.202863156373398,10.224021904682074,9.74610060389305,10.368695762663954,9.168535061126565,12.79859741016027,12.251109191747522,11.898582318245694,10.485017571827596,8.909423201411492,13.969209774259904,11.34507381151296,11.524180654657266,7.663065174576445
13.94980318681823,16.14470990260815,14.551982229483295,14.946581195002839,12.22427540793298,11.229999864384178,12.939192586936507,15.400475781291657,9.913596767442975,11.351262340408658,14.028910895674956,15.54284892682161,11.505769005867357,15.03122989092026
17.076450704115796,9.529586885860269,16.19935742715311,11.837200159816389,15.388023105035325,14.023880842370822,11.915760650946318,14.258241149186027,17.01552083085566,13.073002412309316,12.94811461866405,16.124315514168075,13.034744357972302,13.725901241970044
18.533498109675165,17.04765528768633,13.537663420597598,15.601820065699226,14.492539715726082,14.675583880002776,13.206247994401467,20.702819019360536,15.428170339134528,15.577680360882752,12.865545097721679,13.975247659235281,17.007339950088628,14.8914586787952
18.556616777762,14.095686748109925,11.668404668088982,20.264984069719137,17.399651518842546,15.844805558696944,17.860839485243545,17.184127377831942,16.012339695825933,15.54419328591766,16.103841536286993,13.207958310368264,13.89854963141006,15.996067863288314
14.021667881708925,16.237749378554902,14.055401951694384,17.825400153929305,16.29400539267994,17.33267965738184,18.044943415684635,17.395829406546788,16.694568723345668,20.523910030138193,16.322899132213962,18.595272880140502,17.191145943577204,16.846399970201226
19.649813933039187,16.182119783386522,19.872695152321857,16.932852511357815,14.523676009287907,15.480027052991844,17.8458283945786,16.368978374917113,18.93495616804875,19.065173336491345,16.767369097231352,19.409151905484336,22.680101035924654,17.893988398502813
14.343021480373853,16.94850742057365,15.36119306823267,12.716280168805763,16.11841719175357,19.427232439477542,18.461457294008184,18.01895583963749,16.251206493411722,15.524214441707924,15.666363116066988,18.471287920552243,15.745970456755716,19.02976477220087
15.339603287487368,13.431724524323252,15.977306654016367,15.570301081346676,15.510388188508866,15.99230299137976,18.91467605635086,17.743143720932533,15.939367410887673,19.66192263500493,13.667645430779142,15.090466794392523,15.59588514006015,14.552790307314432
13.07621872578983,14.511791124129202,10.925044404155221,14.904871467944835,10.766871258627425,13.107917566103069,17.638041500132253,15.361893445364425,15.053421043865068,12.921789532180934,11.740945509212683,11.884947682387946,14.811097967273858,17.19925349934969
10.744073916797182,11.833601224218336,8.577055023640952,10.871699242044098,11.737773199412134,14.34962447620445,10.5849549321334,14.003916141577017,12.793831293654279,12.68992473294074,11.312121751462792,11.368067272651512,11.379952253338683,9.884540623283424
3.8856454464006394,10.046064449431364,10.473124453848934,10.25901139525804,10.798241098868122,9.38553843702216,11.028571026732363,6.563483767508862,7.92104709574891,7.365797459488976,7.554092591229539,3.8865774938947064,4.58882308693102,8.701300905247372
6.027085529031968,7.10086294241463,1.8193412686972867,2.8996316400706776,7.926315993072375,6.768375465461888,5.0547847497694365,1.1721792323300373,4.637446984699512,1.0431348071844364,3.793103814534751,4.79796894290841,4.7244883750782565,4.729997084513842
2.2882793202410796,-2.2302494256906606,-0.6585233909423934,-0.167963038413043,0.38483341763546386,1.9664614690252442,0.4714283765935843,0.39053929463239073,-2.2797229375027976,-1.0743706052545803,3.6704972983716515,-1.3604571723906358,-0.9427882149510641,0.2838211050728566
-3.1676552204819264,-5.477900000920576,-2.1015123092241765,-3.068145728530636,-3.9266514999282833,-1.3948700999424286,-4.018277741294773,-3.838730784816038,-1.878840710327735,-3.2973184152498125,-3.7621322944643323,-5.393274557069087,-2.1303904940473393,-3.9999516247959654
-4.832087303101952,-4.636672697113727,-9.62736303708995,-7.317758670341332,-8.102952236054936,-4.418018426481575,-5.8081629854402586,-7.438853666676536,-8.42557303707275,-8.296122185587192,-7.813760923697996,-10.829126321735417,-7.2450751596964444,-5.3353975044106745
-10.045740510187903,-9.947525685663619,-11.223779350957464,-10.29794226395127,-9.725521853944649,-9.4824469455895,-6.593831730640822,-9.069001159065685,-10.876946916924284,-9.389805495895596,-8.436189529607532,-7.888507909288037,-6.775952314252466,-6.845919071901639
-7.794753760553929,-13.059741945113835,-11.395364167961764,-13.956296870396594,-8.006722268962363,-9.53864489556475,-8.496821077318499,-10.662018194587876,-9.256914760347065,-10.851178602840198,-12.722760840057125,-8.853027284170324,-14.621084482425768,-11.70532022497386
-12.052787326666026,-11.397155274800907,-12.000352552315873,-10.576257178809907,-8.801832139686354,-9.180983703903694,-9.031951929966464,-9.601277210375686,-13.68608181920029,-9.432058802752243,-12.53358127973714,-11.470777369712692,-15.347205728455744,-11.682990378331343
-15.351141475528232,-10.702146478572727,-12.797831118410873,-11.713069761595385,-11.703635395199045,-10.922657267691195,-12.493576472054075,-12.014605100169701,-9.055515874236182,-11.015145776358995,-7.5964215186518675,-9.590817669769244,-12.16768357439227,-10.92067061087181
-14.036204588187914,-9.797770430071267,-8.80588418921422,-9.189012965722585,-13.504431271753873,-9.133157978734816,-10.83515371915676,-9.582483378976116,-16.6809248472616,-9.93858678965656,-11.475281178045595,-13.908177948108127,-8.239493675390927,-12.395764868212876
-8.664616621407216,-11.336869904870063,-10.727579811833944,-10.581162040272622,-9.487929075958222,-14.23299945748122,-12.87576189925851,-10.362194353007569,-8.594597068341706,-13.406437164259676,-7.851143759995773,-6.510241061572569,-10.001357699848057,-12.706671573054424
-12.809852616753382,-8.360589559196477,-10.896105764382446,-8.745813820556172,-8.59125919761921,-9.899369481535919,-10.780258141995905,-8.679539504977257,-6.311589244854407,-7.523078921150714,-5.876710738796359,-12.02013862932781,-8.724775598101393,-8.670842538360276
-10.359635638045015,-12.348160361172548,-8.804693979890793,-9.596878533202634,-11.257497811123454,-9.955244163413933,-5.090971273865616,-8.396458735018232,-10.425144125641047,-9.260341904106689,-6.893067638571876,-7.5003171170335445,-11.966881695823563,-8.304944774475496
-8.968642469122601,-11.107675642168362,-5.976428217638981,-4.894166379560357,-8.916083526117896,-5.098704493125457,-9.721374347149965,-6.776224885040194,-9.257245306223556,-8.938423725854285,-9.580013659616503,-11.522861779982293,-9.783555164629155,-2.749193755840774
-4.377456810177456,-7.996552354097553,-4.792476892094847,-7.594417866222351,-11.055195890399581,-8.149500553598012,-6.899531817452962,-4.821953062591012,-4.369865123858686,-10.293210577013685,-5.465159201642939,-7.891029591475784,-9.480272713912797,-8.960871460934007
-5.17390588303426,-6.430343264858137,-4.871868161573254,-13.394708930577664,-6.17967309396852,-7.189622660506723,-6.488823262401807,-9.024120346369203,-8.032888768303705,-8.075608970532167,-3.5006047880471094,-7.22485371478879,-6.098879933993377,-4.154178952387056
-7.297610235096839,-5.9602565736190325,-5.616350075043473,-5.589249177538162,-8.680560192128029,-6.8316049017755915,-3.9852831642981763,-4.013524846784936,-7.040111723663161,-3.5030943635244105,-5.803162515889881,-3.144100876205473,-9.860757593394275,-6.872454951055137
-3.7583654370500916,-3.9819884597471824,-5.850099238206168,-5.501131909079062,-5.654248818966773,-3.9035518243037797,-4.09009498844895,-9.607623985104947,-4.706097379333696,-3.074583360053005,-2.7919488413639777,-3.5531545936870934,-5.951517757939437,-5.1071101890977335
-3.667117372055694,-1.8994001216367655,-2.917267266386495,-4.851417180570668,-6.981526613111919,-3.8585194886760155,-2.818791798667896,-2.574927939452707,-4.2171893350624945,-5.678727377917121,-7.127027451013465,-4.431072756959127,-2.100288513414773,-2.856768857872244
-2.1880766593599774,-1.9218315479511225,-3.6266865717921215,0.20134861905568902,0.734770092022484,0.11748360247768219,-2.8987028887017803,-2.812580901852617,2.081693396977946,0.7212671432402051,-1.527107116804568,-2.8296505722673624,-3.191882641526192,-2.7656756524186994
1.435844528498848,-2.2110101888832707,0.4791809592342422,2.0258225042267446,0.32020591363075623,2.697972968819314,-0.17712704251507072,4.326857105385706,-1.0269930159889364,-1.070745294737283,0.7233717223269608,0.9515574530037411,-0.32998844617839274,-0.626361981287303
2.253184748948545,2.732281111762094,3.6685937659160293,2.988221088452996,4.60463128037158,2.207373942780463,1.805643115546848,2.3402274937296497,3.139182416120465,3.1813478840412603,1.3257272857505467,3.284318209051834,1.084718491941067,4.638111574777792
5.773424022503376,4.010484685403477,4.04778022289695,4.950132827087238,5.854840634268871,4.833944621695667,7.942919457966333,6.482824013476909,2.8806357167458287,5.910899513542097,2.6117124665573925,5.397506204349513,8.986147975656614,4.783907123118877
5.009419715133448,2.8349164748970885,2.506136819413857,6.692876168560836,6.204982379764724,8.954716379195402,5.795846436723166,9.141964481285795,2.719791860724348,8.622792346473897,7.14374598353342,5.9326109316979085,6.671504315164188,2.2696672841484817
6.545317417487,4.363346037382153,5.056916435074918,5.317834857050877,5.772297049260973,6.568582636987198,4.634600225806546,4.451768531332553,4.026063719156635,11.664143598983468,7.927918972456998,8.8356926257666,7.242637629763285,6.56956487876854
7.660717554119364,5.467773288984978,9.881479091083245,2.989331108867429,4.908982893796955,7.233799242624836,4.44363015088896,3.3401347966909443,7.77647520394312,5.651583263258767,4.9229733772527435,7.1082364585637965,8.16699001371655,7.176669920536403
7.280972225975926,9.28166586857538,3.5842345541468026,4.0967152369457125,4.793661016426437,7.176855815345533,7.406637508140909,3.0631928730821834,6.135277112643114,2.629804548604044,3.2703745479767203,4.6911171841647095,6.640317906481553,4.812911022019643
5.758343784820403,7.97318986744188,4.330845365410186,0.2301068336226071,0.9792441202716131,4.951057825911739,4.808989187754717,3.9490237850586407,5.548219722372116,5.305899353412901,4.924002826398576,6.260769153168363,6.967952089325103,4.377896300909241
1.260623098523283,1.3751415013725528,4.3562091715182465,1.5703909542675267,4.494761340335271,1.665914895766516,0.7013205865847865,2.884191616223605,4.844035510743215,7.170260426771231,4.597504096176228,0.13564511106031452,2.544756366478504,-0.24916783372815354
1.2308929441435956,2.822524430537727,1.494387539178704,4.411302591643218,0.7047347059323903,2.943510845697277,-2.121529657254321,2.031746365742381,1.1894000587773326,3.5904716554844787,2.2080197707618305,7.759041509566849,3.9111903399056906,-0.5390889799617979
-2.4485111800425385,0.8798153870366997,1.2920614397871177,2.822727544595865,1.1248179232273345,-0.9203373541799134,1.7796456335197344,-1.0625327829470321,1.9149777037676352,-2.235724568497365,-0.4081920399581136,-0.41487818303644075,-1.4811285791517665,0.17146980926707678
1.680131246718538,-1.0386664297630543,1.4073714938125585,1.234878335296719,0.7648948158853083,-1.3112523269157585,-1.131776515133886,-3.2669111050487354,-0.5174814753896166,1.3696807345823763,0.23423443458179954,-0.04391085360503022,-1.2722802431295122,-1.379531839752777
3.5192437007126456,2.410781673954928,-2.347594749533318,0.8566645092441347,0.7997102306670858,-0.36122327981241287,2.057325724253653,-1.7600843119903355,-1.7637492494825977,1.1376479867525804,3.072601937035767,-0.78624157823087,1.32533514612222,4.108481423824675
2.485961757988102,3.451313179581105,0.35143301976990315,-2.282689455228748,2.0214789954252868,-1.198782984277949,-0.6344661098081228,0.2586155867389388,0.9296234100238572,4.536866712593373,6.225031247625314,3.693116150670559,1.8119934874944765,-1.6930609897936626
2.2615860123630647,1.2946575410661738,0.26675600874865246,2.644726015969823,3.1478213549437584,-0.04276080684758066,2.969562763572337,1.1240630633068505,-0.9801483063736756,4.934561409275188,5.003530966165769,2.780646082964118,2.3972428887968613,2.8844762350015394
1.8313795418557914,5.566856640190851,1.0575374766248342,4.347164653021214,4.57961533167883,4.85759930832661,1.133877965990028,-0.2475423810845978,3.7410548803540253,3.711864337648061,4.865831125662266,1.813754925908975,3.4098154152129814,2.4226998506838267
